#lambda/nm	C1
208.295	509.8
208.67	466.4
209.045	426.2
209.419	433
209.794	610.6
210.169	599.6
210.544	723
210.919	623.4
211.295	608
211.67	618
212.045	617
212.421	610
212.796	664.8
213.172	609.4
213.547	611.2
213.923	619.2
214.299	614
214.675	619.8
215.051	618.8
215.427	623.4
215.803	639.6
216.179	621.6
216.555	599.8
216.932	627.4
217.308	615.4
217.684	612.6
218.061	618.6
218.438	614.6
218.814	606.8
219.191	627.8
219.568	613.4
219.945	609.8
220.322	612.4
220.699	619.2
221.076	627.4
221.453	626.2
221.83	609.4
222.208	618.2
222.585	610.8
222.962	612.6
223.34	622.4
223.717	610.4
224.095	616.2
224.473	622.6
224.851	614.4
225.229	605.2
225.607	638
225.985	612
226.363	616.8
226.741	606.4
227.119	612.2
227.497	623.4
227.876	602.6
228.254	623.4
228.633	623.4
229.011	626
229.39	616.4
229.769	614.6
230.148	615
230.527	625
230.905	613.2
231.284	617.6
231.664	605.4
232.043	615.2
232.422	624.4
232.801	608
233.181	615.8
233.56	612.8
233.94	611.8
234.319	604.2
234.699	610.8
235.079	657.4
235.458	651.4
235.838	638.4
236.218	603.6
236.598	600.8
236.978	615
237.358	606
237.738	613.2
238.119	621.2
238.499	608.2
238.88	612
239.26	634.2
239.641	603.2
240.021	612.2
240.402	610.6
240.783	612.6
241.163	618.2
241.544	618.2
241.925	614.4
242.306	627.6
242.687	613
243.069	617.2
243.45	622.8
243.831	607
244.212	616.4
244.594	651.2
244.975	625.6
245.357	616.6
245.739	604.8
246.12	611.2
246.502	630.2
246.884	613.8
247.266	617
247.648	612.4
248.03	639
248.412	619.2
248.794	623
249.176	610.6
249.559	623.4
249.941	614.6
250.323	609
250.706	613.2
251.089	613
251.471	619.4
251.854	612.6
252.237	614
252.62	635.8
253.002	615.2
253.385	613
253.769	629.2
254.152	611.2
254.535	621.4
254.918	608.6
255.301	615.8
255.685	610.4
256.068	601.2
256.452	643.2
256.835	626
257.219	621.8
257.603	626.2
257.986	614.4
258.37	618.2
258.754	608.4
259.138	626
259.522	626
259.906	611.6
260.29	618.2
260.675	607.2
261.059	619.4
261.443	607.4
261.828	626.4
262.212	615.8
262.597	605.6
262.981	604.6
263.366	625.2
263.751	620
264.136	615
264.521	619.8
264.906	613.4
265.291	627
265.676	614.8
266.061	624.4
266.446	632.2
266.831	619.6
267.217	641.8
267.602	623.6
267.987	619
268.373	608
268.759	631
269.144	619.8
269.53	620.4
269.916	618.2
270.302	617.6
270.688	624.4
271.074	617.8
271.46	626.6
271.846	655
272.232	620
272.618	615.2
273.004	613
273.391	629.4
273.777	633.6
274.164	625.2
274.55	630.4
274.937	622.2
275.324	616
275.71	618.2
276.097	615.6
276.484	604.2
276.871	617.2
277.258	618.8
277.645	614.2
278.032	615.8
278.419	618.6
278.807	614.6
279.194	612
279.581	614.2
279.969	633.6
280.356	617.6
280.744	626.4
281.131	640
281.519	632.8
281.907	609.4
282.295	603
282.682	626.8
283.07	627
283.458	627.4
283.846	624.8
284.235	627.2
284.623	621
285.011	606.8
285.399	618
285.788	609.8
286.176	606.8
286.565	623.8
286.953	617.4
287.342	617.8
287.731	609
288.119	613.6
288.508	613.6
288.897	618.4
289.286	600
289.675	615.8
290.064	622.8
290.453	613.4
290.821	614.6
291.21	624.2
291.599	611.2
291.989	613
292.378	622
292.768	649.2
293.157	624.6
293.547	627.4
293.936	608.6
294.326	618.2
294.716	609.2
295.106	610
295.496	621
295.886	631.8
296.276	607.2
296.666	610.6
297.056	607.4
297.446	605.8
297.836	632
298.227	614.8
298.617	619
299.008	630.8
299.398	611.6
299.789	614.8
300.179	617
300.57	633
300.961	619.8
301.352	609.8
301.742	628.6
302.133	618
302.524	608.6
302.915	613.8
303.307	607.8
303.698	629.8
304.089	625.4
304.48	606.6
304.872	615.8
305.263	622
305.655	607
306.046	620.2
306.438	625.4
306.829	608.6
307.221	629.8
307.613	623
308.005	624
308.397	635
308.789	638.6
309.181	649
309.573	631.4
309.965	636.6
310.357	625.8
310.749	631.8
311.142	620.4
311.534	614.4
311.926	636.6
312.319	616.6
312.711	615
313.104	632.4
313.497	616.2
313.889	651
314.282	630.4
314.675	640
315.068	623
315.461	622.2
315.854	643.2
316.247	624
316.64	620.6
317.033	627.6
317.405	625.2
317.798	621.2
318.192	625.2
318.585	615.6
318.979	618.4
319.372	612.2
319.766	609.2
320.16	633.4
320.553	637.8
320.947	635.6
321.341	610.2
321.735	616.6
322.129	605.6
322.523	640.8
322.917	608.2
323.311	633
323.705	624.2
324.099	622.2
324.494	630.4
324.888	629.4
325.282	615.4
325.677	632.2
326.071	621.8
326.466	624.4
326.861	622.2
327.255	629.4
327.65	626.2
328.045	623.4
328.44	620
328.835	606.6
329.23	610
329.625	634.2
330.02	613.6
330.415	625.2
330.81	618.2
331.206	614.4
331.601	616
331.996	620.8
332.37	633.8
332.766	604.6
333.161	639
333.557	617.2
333.953	617.8
334.348	963.8
334.744	618.2
335.14	616.6
335.536	613.2
335.932	625.8
336.328	622.6
336.724	630.8
337.12	614.4
337.516	624.8
337.913	613.6
338.309	630
338.705	617.2
339.102	623
339.498	607.6
339.895	630
340.291	609.6
340.688	631.2
341.085	618.6
341.481	615.2
341.878	614.4
342.275	632.4
342.672	605.4
343.069	618.8
343.466	604.4
343.842	623
344.239	607.6
344.636	616.6
345.033	613.6
345.431	603.4
345.828	615
346.225	611.4
346.623	660.6
347.02	615.4
347.418	613.6
347.816	634.4
348.213	605.8
348.611	611.8
349.009	614.6
349.407	627.8
349.805	604.2
350.203	613.2
350.601	626
350.999	616
351.397	660.8
351.795	618.6
352.193	631
352.57	627.4
352.969	615.8
353.367	610.4
353.766	609
354.164	606.8
354.563	625.2
354.961	616.2
355.36	610.8
355.759	613.6
356.158	605.6
356.557	610.2
356.956	605.4
357.355	604.6
357.754	620.6
358.153	623.8
358.552	644.2
358.951	609.8
359.35	623.8
359.75	610.4
360.149	613.6
360.527	601.6
360.926	608.2
361.326	613.8
361.726	610
362.125	607.6
362.525	616
362.925	610.4
363.325	615.8
363.724	616
364.124	614.8
364.524	605.2
364.924	604.8
365.324	621.6
365.725	596.8
366.125	619
366.525	614.6
366.904	607.8
367.304	600
367.705	625
368.105	623.4
368.506	609.4
368.906	616.2
369.307	616.4
369.708	609.2
370.108	594.6
370.509	619.4
370.91	604.8
371.311	612.8
371.712	610.4
372.113	611.2
372.514	595.2
372.894	610.6
373.295	607.4
373.696	615.8
374.097	620.4
374.499	638.2
374.9	613.8
375.301	601.8
375.703	607.8
376.105	606.6
376.506	611
376.908	610.2
377.309	614.6
377.711	608.4
378.113	606.2
378.493	617
378.895	602.8
379.297	617
379.699	599.4
380.102	611
380.504	603.8
380.906	604.4
381.308	633.8
381.71	611.8
382.113	614
382.515	609.8
382.918	605.4
383.299	605.6
383.701	617.4
384.104	609
384.507	591.2
384.909	606.8
385.312	600.8
385.715	591.6
386.118	606
386.521	586.6
386.924	624.8
387.327	605.2
387.709	601
388.112	594.4
388.515	605.6
388.918	605.8
389.322	607.8
389.725	599.2
390.129	626.2
390.532	602.8
390.936	605.6
391.339	604.6
391.743	613.8
392.125	609.2
392.529	620.4
392.933	619.6
393.337	606.8
393.74	617.6
394.144	600.8
394.548	607.4
394.953	601.8
395.357	614.6
395.761	614.6
396.144	610.8
396.548	605.8
396.952	613.6
397.357	614.8
397.761	603.2
398.166	604.2
398.57	594.8
398.975	601
399.379	612.4
399.763	662.8
400.168	610.4
400.572	611.6
400.977	610
401.382	626.2
401.787	617.6
402.192	635.6
402.597	627.4
403.002	598.4
403.386	622.4
403.791	626.4
404.197	605
404.602	609.8
405.007	608
405.413	607
405.818	610.6
406.224	602.4
406.608	603.2
407.014	603.2
407.42	631.2
407.825	604.4
408.231	621.2
408.637	612.6
409.043	620.6
409.449	614.8
409.834	604.8
410.24	609.8
410.646	624.8
411.052	619.4
411.458	617
411.865	620.4
412.271	620.8
412.677	607.8
413.062	619.6
413.469	603.6
413.875	635
414.282	627.2
414.689	609.6
415.095	615.6
415.502	602.8
415.888	616.2
416.294	590.4
416.701	651.6
417.108	608.4
417.515	617.4
417.923	608.6
418.33	624.4
418.715	617.4
419.123	613.6
419.53	610.6
419.937	611.2
420.345	626
420.752	610.2
421.16	628.8
421.546	620.4
421.953	621.8
422.361	606.8
422.769	610.4
423.177	604.2
423.585	635.6
423.992	628.4
424.379	619.6
424.787	610.4
425.195	629.2
425.603	601
426.011	616.2
426.419	617.6
426.806	604
427.214	603
427.623	615.2
428.031	626.4
428.44	614.8
428.848	619.8
429.235	631
429.644	613.6
430.053	611
430.461	632
430.87	647
431.279	623.6
431.666	615
432.075	623
432.484	625.8
432.893	618.4
433.302	639.8
433.711	673.2
434.099	634.6
434.508	633.8
434.918	630
435.327	647
435.737	653.8
436.125	654.6
436.534	667.8
436.944	667.8
437.353	678.2
437.763	697.8
438.173	671.4
438.561	693.4
438.971	676.6
439.381	696.6
439.791	714.2
440.201	692
440.589	719.8
440.999	728.2
441.409	734.2
441.819	727.2
442.23	751
442.619	758
443.029	756.8
443.439	751.4
443.85	774
444.26	788.4
444.649	789.4
445.06	772.4
445.471	776.8
445.881	778
446.292	806
446.682	806
447.092	779.6
447.503	837.8
447.914	803.2
448.325	809.8
448.715	812
449.126	808.6
449.537	813.4
449.948	813.6
450.338	819
450.75	828
451.161	814.4
451.572	832.2
451.984	815.2
452.374	803.4
452.786	828.4
453.197	833.2
453.609	842.8
453.999	815.6
454.411	823.6
454.823	846
455.235	843.4
455.647	827.6
456.037	833.6
456.449	821.8
456.862	844.2
457.274	854.2
457.665	830
458.077	846.6
458.489	872.4
458.902	844.2
459.293	854.8
459.705	848
460.118	852.2
460.53	850.6
460.921	850.2
461.334	870.4
461.747	853.6
462.16	860.8
462.551	868.2
462.964	857.8
463.377	839
463.79	858
464.182	867
464.595	850.8
465.008	856.6
465.421	856.8
465.813	854.2
466.226	870.2
466.64	855
467.053	910.4
467.445	878.2
467.859	878.8
468.272	877.8
468.686	888.6
469.078	869
469.492	848.2
469.906	872.8
470.298	871.2
470.712	855.4
471.126	913.8
471.54	854.2
471.933	871.4
472.347	866
472.761	857.8
473.175	860.4
473.568	862
473.982	843.6
474.397	857
474.79	865.6
475.204	863.8
475.619	859
476.033	865.2
476.426	859
476.841	854
477.256	883.6
477.649	856.6
478.064	847.2
478.479	858
478.872	846
479.287	833.2
479.702	843.6
480.118	849.2
480.511	846
480.927	856
481.342	835.2
481.736	849.8
482.151	834.8
482.566	856.4
482.96	839.2
483.376	853.8
483.792	837
484.186	837.2
484.602	833.4
485.017	822.8
485.412	839.4
485.827	829.6
486.243	830
486.638	852.4
487.054	842.4
487.47	848
487.865	832
488.281	828
488.697	837.4
489.092	825.2
489.508	815
489.925	825.6
490.32	809.2
490.736	828.6
491.153	833.2
491.548	816.2
491.964	822.6
492.381	808
492.776	816
493.193	818.2
493.61	811
494.006	816.6
494.422	817.8
494.84	800.4
495.235	820
495.652	804.2
496.069	811.6
496.465	794.4
496.883	806
497.3	820
497.696	795.2
498.113	804.6
498.509	776.4
498.927	780
499.344	778.6
499.741	788.2
500.158	800.2
500.576	791.4
500.973	788
501.39	773
501.787	771
502.205	778.8
502.623	777.2
503.02	772.4
503.438	770.4
503.856	773.8
504.253	770.4
504.671	777.8
505.068	763.4
505.486	758.4
505.905	796.2
506.302	759.6
506.72	772.6
507.118	748.4
507.536	760.2
507.955	767.8
508.352	770.8
508.771	761
509.169	760.2
509.587	743.4
510.006	745.8
510.404	744.4
510.823	741
511.221	753.4
511.64	735
512.038	755.6
512.457	740.6
512.877	739.4
513.275	737.4
513.694	739.6
514.092	734.2
514.512	754.6
514.91	750.6
515.33	727.4
515.749	733.2
516.148	731.4
516.568	729
516.966	716.2
517.386	717.6
517.785	722.6
518.205	728.8
518.603	726.4
519.024	709.2
519.444	712.4
519.843	724
520.263	725.6
520.662	726.8
521.082	711.4
521.481	717.2
521.902	711.4
522.301	709
522.722	707.4
523.121	702.6
523.542	694.8
523.963	689.4
524.362	701.4
524.783	713.6
525.183	706.2
525.604	697
526.003	688.8
526.425	686.6
526.824	706.2
527.246	708
527.646	701.8
528.067	692
528.467	700
528.888	686.8
529.289	694.2
529.71	693.4
530.11	684.8
530.532	688
530.932	671.8
531.354	678.6
531.755	717.2
532.176	692.2
532.577	679.4
532.999	678.6
533.4	676
533.822	688
534.223	686.6
534.645	673.2
535.046	678.6
535.468	681.2
535.869	693.6
536.292	668.2
536.693	704.8
537.115	676.4
537.516	673.2
537.939	667.4
538.34	688
538.742	690.8
539.165	678.4
539.566	669.4
539.989	664
540.391	667.2
540.814	662.6
541.216	671.6
541.639	663.8
542.041	680.2
542.464	668
542.866	659.4
543.268	654.8
543.691	665.2
544.093	669.4
544.517	674.8
544.919	654.6
545.343	680.2
545.745	650.8
546.147	667.6
546.571	652.8
546.974	650
547.398	665
547.8	660.8
548.224	657.8
548.627	654.8
549.03	657
549.454	655
549.857	640.2
550.281	649.2
550.684	643.4
551.087	664.6
551.512	655.6
551.915	656.2
552.34	647.4
552.743	644.8
553.146	645.6
553.571	644
553.975	671.8
554.399	638.4
554.803	689
555.207	638.2
555.632	640
556.036	645.2
556.461	638.4
556.865	647.4
557.268	629.4
557.694	638.6
558.098	634.2
558.502	644.6
558.927	636.6
559.332	637.6
559.736	637.8
560.162	640.2
560.566	638.6
560.992	638.2
561.396	642.8
561.801	641.6
562.227	639.4
562.631	635.8
563.036	628.2
563.462	641.4
563.867	634.4
564.272	627.2
564.698	629.2
565.103	623
565.508	658.4
565.935	627
566.34	629.8
566.745	646.6
567.172	629
567.577	649.6
567.982	647.8
568.409	633.6
568.815	623.6
569.22	626.6
569.626	625.4
570.053	617
570.459	622.2
570.865	630.4
571.292	633.8
571.698	635.6
572.104	620
572.531	612.2
572.937	638
573.343	620
573.75	624.2
574.177	618
574.583	637.4
574.99	621.6
575.396	636.4
575.824	611.8
576.231	635.2
576.637	618
577.065	648.2
577.472	606.2
577.879	608.2
578.286	631.2
578.714	607.8
579.121	613.2
579.528	610.4
579.935	625
580.364	615.6
580.771	598.4
581.178	607.8
581.585	616.6
582.014	625.2
582.421	607
582.829	614.6
583.236	616.6
583.644	613.8
584.073	607
584.481	610.4
584.889	603
585.296	616.4
585.726	622.2
586.134	600.2
586.542	605.6
586.95	619.6
587.358	609
587.787	616.8
588.196	621
588.604	609.4
589.012	613.2
589.421	606
589.851	599.2
590.259	615
590.668	605.2
591.076	644.4
591.485	601.8
591.894	612.2
592.324	625.6
592.733	619.6
593.142	603
593.551	603
593.96	610
594.369	598.4
594.8	601.2
595.209	616.6
595.618	595.2
596.028	601
596.437	599.4
596.847	610.4
597.256	613.4
597.687	610.2
598.097	599
598.507	588.4
598.917	614.2
599.327	609.6
599.736	604
600.146	615
600.556	606
600.988	613.2
601.398	604.6
601.808	609.8
602.219	596
602.629	603.8
603.039	605.6
603.45	630.2
603.86	607.4
604.271	614
604.703	605.4
605.114	596.8
605.525	603.8
605.935	608.2
606.346	620.6
606.757	610.2
607.168	608.4
607.579	594.6
607.99	620
608.402	609.4
608.813	612
609.224	594
609.636	595
610.047	602.4
610.48	610.4
610.892	613.2
611.303	609.4
611.715	601.4
612.127	595.6
612.539	601
612.95	606.2
613.362	591.8
613.774	589.4
614.186	591.4
614.599	601.8
615.011	611
615.423	596.8
615.835	597.8
616.248	596.2
616.66	601
617.073	591.8
617.485	591.2
617.898	607
618.311	602.8
618.723	601.4
619.136	623.8
619.549	610
619.962	621.2
620.375	594.4
620.788	604
621.201	589.8
621.614	602.6
622.028	595.8
622.441	588
622.854	605
623.268	586.6
623.681	596.8
624.095	594.8
624.509	607.8
624.922	601.6
625.336	586.4
625.728	599
626.142	614.4
626.556	611.8
626.97	597.6
627.384	596.4
627.799	588
628.213	606.2
628.627	595.4
629.041	594.6
629.456	588.6
629.87	595
630.285	605.8
630.699	609.4
631.093	599
631.507	608.4
631.922	598
632.337	602
632.752	585.4
633.167	598.4
633.582	583.8
633.997	596.6
634.412	589.8
634.806	603
635.221	584.4
635.637	609.2
636.052	591.8
636.468	605
636.883	612.6
637.299	588.6
637.715	587.4
638.109	599.4
638.525	585.2
638.941	609.8
639.357	598
639.773	610
640.189	596.6
640.584	593.2
641	599.6
641.416	577.2
641.832	592.2
642.249	586.8
642.665	600.8
643.06	592.8
643.477	605.6
643.894	578.8
644.31	594
644.727	595.4
645.123	593.4
645.54	586
645.957	593.2
646.374	608.6
646.77	600.4
647.187	626.8
647.604	589.8
648.021	583.4
648.439	598.4
648.835	607
649.252	599
649.67	599
650.088	587.6
650.484	590.6
650.902	599.4
651.32	604.6
651.738	592.8
652.134	604.2
652.552	620.8
652.971	606.2
653.389	593
653.786	598.6
654.204	620.4
654.622	593
655.019	599.4
655.438	607.2
655.857	603.4
656.275	595.4
656.673	590.8
657.091	609
657.51	595.6
657.908	603.2
658.327	603.4
658.746	588.2
659.144	596
659.563	614.8
659.982	603.2
660.38	586.8
660.8	600.4
661.219	599.4
661.617	596.4
662.037	597.2
662.457	604.8
662.855	584.8
663.275	629.8
663.695	588.6
664.094	595
664.514	600
664.934	591
665.333	596.6
665.753	588
666.152	586.2
666.572	589.4
666.993	609.8
667.392	588
667.812	592.4
668.212	588.2
668.632	597.8
669.053	594
669.453	599.2
669.874	598.6
670.273	594.2
670.694	584
671.116	603.4
671.515	598.2
671.937	593.4
672.337	587.6
672.758	587.6
673.158	601.2
673.58	570
673.98	594
674.402	599.2
674.824	587.2
675.224	587.4
675.646	578.6
676.047	584.4
676.469	591.8
676.869	595.8
677.292	595.6
677.693	582.6
678.115	581.8
678.516	600
678.939	590.6
679.34	582
679.762	597.4
680.164	590.8
680.586	579.2
680.988	585.4
681.411	608.4
681.812	588.4
682.236	579
682.637	578.4
683.061	575.6
683.462	599.2
683.864	585.8
684.288	597.2
684.69	575.4
685.114	606.4
685.516	600.2
685.94	585.2
686.342	596.8
686.766	587.6
687.168	590.8
687.571	604.6
687.995	592
688.398	578.2
688.822	599
689.225	612.2
689.628	610.8
690.052	591.4
690.456	584.4
690.88	590.4
691.284	577.2
691.687	595.2
692.112	585.4
692.515	584.8
692.919	584.6
693.344	590.6
693.747	591.4
694.173	579.6
694.577	603.8
694.98	584.4
695.406	588.4
695.81	588
696.214	592.8
696.64	589.8
697.044	590.2
697.448	601.8
697.874	589.8
698.279	591.6
698.684	579.6
699.11	580.6
699.514	587.8
699.919	587.8
700.324	588
700.75	590
701.156	583
701.561	596.2
701.987	596.8
702.393	601.4
702.798	603.2
703.203	592
703.63	583.6
704.036	583.2
704.442	586
704.847	581
705.274	582.6
705.68	591.4
706.086	599.4
706.492	577.8
706.92	593.6
707.326	594.6
707.732	588
708.139	588.8
708.545	592
708.973	586
709.38	586.8
709.786	584
710.193	606.6
710.6	594.6
711.028	582.8
711.435	590.6
711.842	582
712.249	593.2
712.656	592
713.064	605.6
713.492	586.8
713.9	580
714.307	600.2
714.715	587
715.123	586.8
715.53	576.6
715.938	589
716.367	585.2
716.775	584
717.184	576
717.592	581.6
718	595.8
718.408	613.4
718.816	616.4
719.225	579.8
719.633	587.6
720.042	575.4
720.472	571.8
720.881	601.2
721.29	585.2
721.699	576.4
722.108	589.6
722.517	582
722.926	578.2
723.335	593.2
723.744	590
724.154	589.6
724.563	577.4
724.973	582
725.382	581.6
725.792	580.6
726.202	578.8
726.612	606
727.022	586
727.432	588
779.813	583.4
780.223	627.4
780.634	585.6
781.044	580
781.454	588.6
781.865	595.2
782.276	580
782.686	599
783.097	583.4
783.508	585.4
783.919	582
784.33	596.2
784.741	597
785.152	583
785.563	577.2
785.974	583
786.386	594
786.776	576.2
787.188	594.4
787.599	575.8
788.011	593.4
788.423	591
788.835	585.8
789.247	577.8
789.659	578
790.071	581
790.483	622.4
790.874	587
791.286	590.8
791.699	582.2
792.111	585.6
792.524	590.8
792.937	582.8
793.349	578.8
793.741	580.4
794.154	587
794.567	608.8
794.98	589.4
795.393	576.6
795.785	605
796.198	589.4
796.612	590.4
797.026	585
797.439	565
797.831	577
798.245	576.6
798.659	581.4
799.073	590.2
799.487	577.8
799.88	585.6
800.294	589.2
800.708	588.6
801.123	588
801.516	600.2
801.93	575.8
802.345	576.6
802.76	581.8
803.153	598
803.568	596.4
803.983	593.6
804.377	593.6
804.792	579.4
805.207	568.4
805.601	589.2
806.016	618.8
806.432	582.2
806.826	608.8
807.242	598.6
807.658	588
808.052	581.6
808.468	583.4
808.884	582.8
809.279	585.2
809.695	593.2
810.111	611.6
810.506	594
810.922	602
811.339	588.6
811.734	588.6
812.151	578.4
812.546	575.4
812.963	583
813.38	588.6
813.776	588.4
814.193	601.6
814.589	589.4
815.006	578.4
815.402	573
815.82	580.8
816.237	586.6
816.633	578.4
817.051	572.8
817.448	585.6
817.866	574.4
818.262	598.4
818.68	580.6
819.077	591.6
819.495	579
819.892	618.8
820.311	574.8
820.708	583.2
821.127	582
821.524	589
821.943	581.2
822.34	595
822.759	593.4
823.157	584
823.576	592.6
823.974	587.4
824.393	631.2
824.791	579.4
825.189	564
825.609	572.4
826.007	589.2
826.427	566.6
826.826	579.4
827.246	588.8
827.644	568.8
828.043	592.8
828.463	578
828.862	584.8
829.261	587
829.682	569.4
830.081	586
830.502	575.2
830.901	582.6
831.301	597.6
831.722	565.8
832.121	586.6
832.521	578.8
832.943	589.2
833.342	579
833.742	573.8
834.164	573.6
834.564	569.4
834.965	579.6
835.386	584.6
835.787	582.2
836.188	583.2
836.588	583.8
837.01	576.8
837.411	569.8
837.812	591
838.213	587.4
838.636	581.2
839.037	662
839.438	580.6
839.84	587.8
840.263	586.8
840.664	582.6
841.066	578.2
841.468	590.2
841.891	582.4
842.293	585.8
842.695	584
843.098	595.6
843.5	588.4
843.902	593.8
844.326	593.6
844.729	580
845.131	600.2
845.534	591.2
845.937	604.8
846.34	599.6
846.764	586
847.167	588.2
847.571	579
847.974	584.8
848.377	582
848.781	636
849.184	594.2
849.588	576.6
849.992	585.6
850.396	587.2
850.821	598.4
851.225	587.8
851.63	582.6
852.034	589.6
852.438	577
852.843	665.8
853.247	579
853.652	575.6
854.057	599.6
854.462	579.4
854.867	584.6
855.272	607.4
855.677	586.6
856.082	577.8
856.487	570.4
856.893	591.4
857.298	585
857.704	575.2
858.11	589.6
858.516	588.8
858.922	587.8
859.328	591.8
859.734	582.4
860.14	583
860.525	585.2
860.931	568
861.338	570.2
861.745	583.4
862.151	589.2
862.558	581
862.965	571.2
863.372	564.4
863.779	571.8
864.186	596.2
864.572	575.2
864.98	591.8
865.387	599.6
865.795	568.8
866.203	592
866.61	579.6
867.018	587
867.405	585
867.813	568.8
868.221	574.4
868.63	573.2
869.038	586.2
869.425	620.2
869.834	582
870.243	564
870.652	576
871.039	570.4
871.448	576.4
871.857	589.6
872.266	587.4
872.654	580.6
873.064	573.8
873.473	585.6
873.883	578
874.271	575.6
874.681	601
875.091	565.4
875.48	592.2
875.89	595
876.3	574.8
876.689	567.2
877.1	582.2
877.51	583
877.9	606.6
878.31	583.6
878.721	619.4
879.111	588.2
879.522	580.8
879.933	570
880.323	573.4
880.734	579.4
881.125	584
881.536	586.4
881.948	583.4
882.338	582.2
882.75	591.4
883.141	579.4
883.553	591.6
883.944	614
884.356	586.4
884.769	576.6
885.16	579.6
885.573	588
885.964	579.4
886.377	576.2
886.768	571
887.181	582.6
887.573	575.4
887.987	588.2
888.378	592.4
888.792	590.4
889.184	632.8
889.598	577
889.99	582.2
890.383	582.8
890.797	565.2
891.19	601.6
891.604	581.6
891.997	566.8
892.411	573.6
892.805	572.4
893.198	573.6
893.613	565.6
894.006	581
894.421	572.8
894.815	579.6
895.209	575.8
895.624	623.8
896.018	593.8
896.412	580.8
896.828	581.2
897.222	588.2
897.617	581.8
898.033	600.6
898.427	594
898.822	586.8
899.239	573.8
899.634	577.2
900.029	596
900.424	569.4
900.841	567.8
901.236	585.6
901.632	583.8
902.027	639
902.445	588.2
902.841	584
903.237	580.6
903.633	594.8
904.05	593.2
904.447	575.4
904.843	594.6
905.24	586.4
905.636	571.4
906.033	576.8
906.451	589.4
906.848	568.4
907.246	575.8
907.643	576.2
908.04	590
908.438	600.2
908.835	580.4
909.254	580.6
909.652	593
910.05	578
910.448	568.6
910.846	586.6
911.244	573.2
911.643	578.2
912.041	578
912.44	603.4
912.839	574.6
913.237	573.6
913.636	567.4
914.035	584.2
914.434	582.6
914.834	585.2
915.233	584.4
915.633	572.8
916.032	578.8
916.432	571
916.832	597.2
917.232	575
917.632	569.8
918.032	586.6
918.432	576.6
918.833	577.6
919.233	585.4
919.634	565
920.035	584
920.436	563.6
920.837	580.6
921.238	572.8
921.639	577.8
922.019	577.4
922.42	580.2
922.822	583.6
923.224	575.2
923.625	575.4
924.027	576.4
924.429	598.8
924.81	587.4
925.212	582.8
925.615	578.8
926.017	585.2
926.42	588
926.801	583.8
927.204	582.2
927.607	582.6
928.01	591.4
928.413	584.2
928.795	569.4
929.199	575.6
929.602	579
930.006	572.6
930.388	566
930.792	587.6
931.196	574.6
931.579	614.6
931.983	571.8
932.388	618.6
932.771	571.4
933.176	569.8
933.58	581.4
933.964	584.8
934.369	566.6
934.774	585.2
935.158	573.2
935.563	584
935.947	578.6
936.353	583.2
936.759	574.4
937.143	585.2
937.549	584.6
937.934	584.6
938.34	591.8
938.746	571.6
939.131	577.4
939.538	574
939.923	592
940.33	572.4
940.716	580.8
941.123	581.6
941.508	593.8
941.916	593.8
942.302	586.8
942.709	567.2
943.096	575
943.503	591.6
943.89	579.2
944.298	574.2
944.685	605.4
945.072	583.8
945.48	588.6
945.867	574
946.276	572.6
946.663	597.8
947.051	596.8
947.46	587.6
947.848	579.6
948.257	576.6
948.645	580.4
949.033	580.8
949.443	575.2
949.831	612.8
950.22	566.8
950.63	591
951.018	613.2
951.407	569.4
951.796	567.2
952.207	584.4
952.596	592.8
952.985	572
953.375	623.6
953.786	571.8
954.176	570.6
954.566	576.8
954.956	559.2
955.367	570.2
955.758	595.6
956.148	562
956.539	586.6
956.929	570.6
957.341	563.6
957.732	564.2
958.123	581.6
958.515	564.2
958.906	579.8
959.297	572.8
959.689	568.6
960.102	561.8
960.494	571
960.886	570.4
961.278	568.6
961.67	591.4
962.062	605.4
962.455	585.2
962.847	562.8
963.24	568.2
963.633	570
964.026	569.8
964.419	577.8
964.812	587.4
965.206	579.6
965.599	583
965.993	574.8
966.386	572.2
966.78	588.8
967.174	582.2
967.569	570.8
967.963	573.2
968.357	568.8
968.752	574
969.146	578
969.541	565.2
969.936	574
970.331	575
970.705	574.4
971.1	579
971.496	583.8
971.892	569.6
972.287	575.6
972.683	575.2
973.079	578.6
973.454	591.6
973.85	581.8
974.247	581.6
974.643	603.2
975.04	581.8
975.415	584.2
975.812	566.8
976.209	577
976.607	571.6
976.982	580.4
977.38	594.6
977.778	572.2
978.175	572.6
978.552	578.4
978.95	588.2
979.348	581.2
979.725	625
980.123	569.2
980.522	578.2
980.899	572.4
981.298	573.2
981.697	579.4
982.075	582.4
982.474	576.6
982.852	574.4
983.251	580.4
983.651	572.8
984.029	583.2
984.429	583.8
984.808	566.4
985.208	574.8
985.609	564.2
985.987	573
986.388	573.2
986.768	587.8
987.168	574
987.548	585.2
987.949	580.2
988.329	585.4
988.731	565.8
989.111	573.8
989.491	576.8
989.893	576.2
990.273	590.2
990.676	575.6
991.057	566.8
991.459	570.4
991.84	579.8
992.221	569.2
992.624	591.8
993.006	579.4
993.388	583
993.791	584.8
994.173	573.6
994.576	621.6
994.959	570.2
995.341	578.4
995.724	575
996.128	571.2
996.511	578.6
996.894	566.8
997.298	581.4
997.681	580.4
998.065	581.4
998.448	574.2
998.854	587.4
999.237	571.6
999.621	584.2
1000.01	597.6
1000.39	582.2
1000.8	569.4
1001.18	586.4
1001.56	588.2
1001.95	579.2
1002.33	588.8
1002.72	577.4
1003.13	579.2
1003.51	579.8
1003.9	572
1004.28	596.2
1004.67	575.2
1005.06	576
1005.44	600.8
1005.83	558.8
1006.21	573.8
1006.6	577
1006.99	581
1007.37	581.4
1007.76	575
1060.12	564.8
1060.51	562.4
1060.89	580.2
1061.28	584.8
1061.67	583.2
1062.06	584
1062.45	574
1062.83	572.2
1063.22	575.6
1063.61	610
1064	581.4
1064.39	578.2
1064.78	569.8
1065.14	582.2
1065.53	576.2
1065.92	567.6
1066.31	569.8
1066.7	582
1067.09	594.8
1067.46	582.8
1067.85	567.8
1068.24	566.8
1068.63	582
1069.02	571.4
1069.39	576.6
1069.78	570.4
1070.17	572
1070.57	568.2
1070.93	578.2
1071.33	571.6
1071.72	579.6
1072.11	572.8
1072.48	564.2
1072.87	581.4
1073.26	570.6
1073.64	574.6
1074.03	557.8
1074.4	571.2
1074.79	576
1075.19	572.4
1075.56	581.6
1075.95	583.8
1076.34	577
1076.72	580.6
1077.11	576.4
1077.48	583.4
1077.88	581.4
1078.25	580.2
1078.64	583
1079.02	580
1079.41	585.8
1079.78	577.8
1080.18	571.6
1080.55	644.4
1080.95	569.8
1081.32	570.2
1081.72	580
1082.09	580.2
1082.49	569.4
1082.86	566.8
1083.24	571
1083.63	571.6
1084.01	578.2
1084.38	583.6
1084.78	564
1085.16	580.2
1085.55	583.6
1085.93	594.8
1086.31	570.8
1086.7	604
1087.08	567.2
1087.46	574.2
1087.83	561
1088.23	587
1088.61	577.2
1088.99	583.6
1089.36	580.2
1089.76	569.4
1090.14	571.4
1090.52	574.6
1090.9	570.2
1091.27	587.8
1091.67	597.4
1092.05	583
1092.43	567.6
1092.81	588.2
1093.19	581
1093.57	575
1093.95	580.4
1094.35	578.6
1094.73	587.8
1095.11	572.8
1095.49	568.8
1095.87	573.8
1096.25	578.2
1096.63	586.2
1097.01	574.6
1097.39	574.4
1097.77	565
1098.15	571.8
1098.53	573.2
1098.91	564.2
1099.29	568.6
1099.68	585
1100.06	577.2
1100.44	572.6
1100.82	576.4
1101.18	572.6
1101.56	555.6
1101.95	565.4
1102.33	569.6
1102.71	574
1103.1	563.8
1103.48	557.8
1103.86	565.6
1104.22	577.2
1104.61	564.4
1104.99	571
1105.38	561.6
1105.76	574.6
1106.12	566.4
1106.51	617
1106.89	584.4
1107.26	579
1107.64	580
1108.03	574.4
1108.41	572.6
1108.78	583
1109.16	573
1109.55	582.2
1109.91	563.6
1110.3	557.6
1110.69	585.2
1111.05	572.4
1111.44	579.8
1111.8	571.8
1112.19	576.6
1112.58	586.6
1112.94	571.4
1113.33	573
1113.7	570
1114.09	568.6
1114.45	564.4
1114.84	570.6
1115.21	575.8
1115.6	571.2
1115.96	575
1116.35	575
1116.72	569.4
1117.11	591.8
1117.48	571.2
1117.85	575.6
1118.24	590.6
1118.6	575.6
1118.99	568.6
1119.36	580.2
1119.73	571.8
1120.12	578.8
1120.49	561.6
1120.86	577
1121.25	572
1121.62	570.4
1121.99	572
1122.38	585.8
1122.76	567
1123.13	575.6
1123.5	579.4
1123.89	583
1124.26	568
1124.63	571
1125	582.2
1125.4	564.6
1125.77	563.6
1126.14	558.6
1126.51	568
1126.88	579
1127.26	562.4
1127.63	562.2
1128.02	567.2
1128.4	568.2
1128.77	577.6
1129.14	567.2
1129.52	575.6
1129.89	578.4
1130.26	565
1130.64	564
1131.01	570.8
