#lambda/nm	C1
208.295	515
208.67	472
209.045	432
209.419	434.8
209.794	616.4
210.169	596.6
210.544	714.4
210.919	620.8
211.295	602.8
211.67	611.8
212.045	609
212.421	609.2
212.796	652.4
213.172	611.8
213.547	606.4
213.923	616
214.299	615
214.675	616
215.051	611.6
215.427	624
215.803	634
216.179	612.8
216.555	610.4
216.932	624.2
217.308	618.6
217.684	611.6
218.061	619.8
218.438	619.4
218.814	607.8
219.191	616.4
219.568	603.8
219.945	616.2
220.322	616.8
220.699	619
221.076	621.6
221.453	621.8
221.83	606.2
222.208	619.8
222.585	607.8
222.962	618.8
223.34	618
223.717	618.6
224.095	605.6
224.473	617.4
224.851	601.6
225.229	608.2
225.607	634.8
225.985	612
226.363	609
226.741	618
227.119	613.6
227.497	628.4
227.876	602
228.254	619
228.633	613
229.011	619
229.39	613.4
229.769	613
230.148	621.8
230.527	631.6
230.905	614.6
231.284	617.8
231.664	611.6
232.043	627.8
232.422	625.2
232.801	610.8
233.181	601.6
233.56	615.2
233.94	616
234.319	598
234.699	611
235.079	652.4
235.458	644.2
235.838	625.6
236.218	610.4
236.598	599.6
236.978	606
237.358	597.6
237.738	602.4
238.119	625.2
238.499	606.8
238.88	613
239.26	627.6
239.641	608.6
240.021	604.4
240.402	616.6
240.783	607.6
241.163	615.2
241.544	615.8
241.925	609
242.306	620.4
242.687	622.2
243.069	619.4
243.45	632
243.831	616
244.212	610.8
244.594	652.8
244.975	622.4
245.357	616.6
245.739	610.4
246.12	613.4
246.502	632.8
246.884	609
247.266	614.2
247.648	617
248.03	634
248.412	620.4
248.794	614.4
249.176	614.2
249.559	628.4
249.941	606.4
250.323	608.6
250.706	603.4
251.089	610.6
251.471	620.6
251.854	618.8
252.237	615.4
252.62	619.8
253.002	607.2
253.385	612.2
253.769	631
254.152	614.6
254.535	630.6
254.918	605
255.301	620.6
255.685	607.6
256.068	613.6
256.452	633.6
256.835	616.2
257.219	617
257.603	623.6
257.986	600.4
258.37	615.2
258.754	599
259.138	620.8
259.522	619.4
259.906	615.8
260.29	616.2
260.675	608.8
261.059	614.8
261.443	594.6
261.828	618.2
262.212	619.2
262.597	599.2
262.981	601.4
263.366	618.8
263.751	627.2
264.136	602
264.521	599.8
264.906	601.6
265.291	618
265.676	610
266.061	624.8
266.446	634
266.831	613.4
267.217	635
267.602	612.8
267.987	617.6
268.373	610.4
268.759	624
269.144	629.6
269.53	613.4
269.916	619.8
270.302	612.2
270.688	623.2
271.074	622
271.46	629.8
271.846	641.8
272.232	619
272.618	610.4
273.004	620.8
273.391	629.4
273.777	634.4
274.164	616.8
274.55	632.8
274.937	630.4
275.324	622.2
275.71	626.2
276.097	616.4
276.484	607
276.871	610.8
277.258	619.6
277.645	606.4
278.032	614.8
278.419	610.6
278.807	618.6
279.194	616.8
279.581	604.6
279.969	611.6
280.356	621.8
280.744	616
281.131	645
281.519	630.8
281.907	616.2
282.295	612.2
282.682	621
283.07	616.6
283.458	622.8
283.846	624
284.235	638.4
284.623	632.6
285.011	612.4
285.399	617.8
285.788	615.6
286.176	607.4
286.565	627.8
286.953	603.2
287.342	616.4
287.731	613
288.119	612.8
288.508	612.4
288.897	612.6
289.286	593.2
289.675	616.4
290.064	619.8
290.453	620.4
290.821	623.6
291.21	632.8
291.599	611.4
291.989	616.4
292.378	629.8
292.768	633.4
293.157	618.4
293.547	625
293.936	617.4
294.326	616.8
294.716	615.4
295.106	612.4
295.496	618.8
295.886	623.6
296.276	618
296.666	615.2
297.056	603.4
297.446	605.4
297.836	635.6
298.227	601
298.617	612
299.008	631.8
299.398	620.2
299.789	612
300.179	622
300.57	615.2
300.961	611.8
301.352	605.2
301.742	626.2
302.133	613.2
302.524	614
302.915	620
303.307	613.2
303.698	640
304.089	620.4
304.48	615.8
304.872	633
305.263	620.2
305.655	610.6
306.046	622
306.438	620.6
306.829	613.2
307.221	631.8
307.613	633.2
308.005	632
308.397	630.2
308.789	630.6
309.181	634.6
309.573	628
309.965	629.4
310.357	617.6
310.749	633.6
311.142	614.8
311.534	612
311.926	623
312.319	619
312.711	608.8
313.104	631.8
313.497	617.4
313.889	654
314.282	634.6
314.675	635.4
315.068	620.6
315.461	624
315.854	648.6
316.247	617.4
316.64	617.8
317.033	618.4
317.405	626
317.798	619.8
318.192	624.2
318.585	611.4
318.979	622.6
319.372	603.2
319.766	619.4
320.16	623.8
320.553	634.8
320.947	631.6
321.341	608.2
321.735	620.6
322.129	609.8
322.523	641.4
322.917	604.4
323.311	627.2
323.705	619.8
324.099	628.6
324.494	632.8
324.888	631.4
325.282	617.8
325.677	630.6
326.071	621.4
326.466	620.4
326.861	609.8
327.255	626.8
327.65	627.8
328.045	630.8
328.44	612.6
328.835	622.2
329.23	612
329.625	641.8
330.02	622.6
330.415	640.4
330.81	621.4
331.206	623.8
331.601	618.8
331.996	627.2
332.37	636.6
332.766	605.6
333.161	631.4
333.557	613.8
333.953	618
334.348	964
334.744	609.6
335.14	604
335.536	615
335.932	622.8
336.328	628
336.724	626.8
337.12	615.4
337.516	622.6
337.913	615
338.309	629.4
338.705	616.6
339.102	631
339.498	615.8
339.895	632.2
340.291	608.4
340.688	624.2
341.085	606
341.481	615.2
341.878	612
342.275	637
342.672	619.8
343.069	616.6
343.466	603.4
343.842	616
344.239	610
344.636	619.2
345.033	603.2
345.431	609.6
345.828	628.6
346.225	615.4
346.623	654.6
347.02	609.2
347.418	627.4
347.816	634
348.213	611.2
348.611	627.8
349.009	611.6
349.407	622.4
349.805	607
350.203	606.6
350.601	622.2
350.999	612
351.397	685.4
351.795	614.8
352.193	619.6
352.57	627.4
352.969	620.4
353.367	611.4
353.766	609.4
354.164	604.4
354.563	624
354.961	617
355.36	612
355.759	615
356.158	598.6
356.557	609.4
356.956	601.4
357.355	598
357.754	607.8
358.153	605.4
358.552	630.8
358.951	611
359.35	617
359.75	600.2
360.149	606.8
360.527	602.2
360.926	612.8
361.326	614.8
361.726	618.6
362.125	603.6
362.525	621.6
362.925	605.4
363.325	620.4
363.724	608.6
364.124	614.6
364.524	600.6
364.924	603.8
365.324	621.6
365.725	591.8
366.125	605.2
366.525	612
366.904	607.4
367.304	597
367.705	620.8
368.105	631.2
368.506	611.4
368.906	607.8
369.307	611.4
369.708	624.8
370.108	597.4
370.509	619.8
370.91	599.4
371.311	614.8
371.712	615.4
372.113	610
372.514	604.8
372.894	610.6
373.295	605.2
373.696	629.6
374.097	620.6
374.499	642.4
374.9	614.6
375.301	601.4
375.703	613.4
376.105	606.8
376.506	613.2
376.908	613
377.309	614.4
377.711	617
378.113	604.2
378.493	611.4
378.895	605.4
379.297	625
379.699	599.8
380.102	610.4
380.504	610.6
380.906	607
381.308	629.6
381.71	610
382.113	622.4
382.515	609.2
382.918	621
383.299	608.4
383.701	620.4
384.104	621
384.507	583.6
384.909	612.8
385.312	600.8
385.715	596.8
386.118	609.4
386.521	604.8
386.924	626.4
387.327	601.8
387.709	599
388.112	598.2
388.515	601
388.918	602.4
389.322	613
389.725	607.2
390.129	631.4
390.532	614.6
390.936	618.2
391.339	599.6
391.743	612.2
392.125	601
392.529	617.6
392.933	609.8
393.337	603.4
393.74	599.8
394.144	610.8
394.548	609.8
394.953	608.4
395.357	612
395.761	605.4
396.144	609.8
396.548	602.4
396.952	611.8
397.357	606.4
397.761	603.6
398.166	601.8
398.57	609.6
398.975	596.4
399.379	612.4
399.763	651.2
400.168	609.8
400.572	606
400.977	605.8
401.382	620.4
401.787	615.2
402.192	626.6
402.597	627.8
403.002	602.4
403.386	623.6
403.791	626.4
404.197	609.6
404.602	611.6
405.007	611.8
405.413	614.6
405.818	609.8
406.224	597.8
406.608	603.6
407.014	606
407.42	621.2
407.825	603.8
408.231	616.4
408.637	614.6
409.043	624.8
409.449	609.6
409.834	610
410.24	607.8
410.646	619.8
411.052	621.6
411.458	609
411.865	617.6
412.271	624.2
412.677	612
413.062	610
413.469	595.8
413.875	633
414.282	625
414.689	620.2
415.095	611.6
415.502	600
415.888	610.6
416.294	593
416.701	656.4
417.108	605.6
417.515	613.8
417.923	607
418.33	634.4
418.715	617.4
419.123	605.2
419.53	606.8
419.937	609.2
420.345	623
420.752	605.4
421.16	626
421.546	612
421.953	624
422.361	604.4
422.769	607.8
423.177	596.4
423.585	632.2
423.992	623
424.379	618.4
424.787	611.6
425.195	623.4
425.603	604.6
426.011	621.6
426.419	626.2
426.806	616.4
427.214	609.4
427.623	619.8
428.031	620
428.44	611.8
428.848	628.6
429.235	628.4
429.644	616.4
430.053	618.2
430.461	624.6
430.87	638.4
431.279	619.8
431.666	607.6
432.075	616.8
432.484	622
432.893	610.2
433.302	643.6
433.711	655.4
434.099	619.2
434.508	620.2
434.918	606.8
435.327	630.2
435.737	632.2
436.125	633.2
436.534	640
436.944	639.4
437.353	642.8
437.763	663.2
438.173	636.8
438.561	654.4
438.971	637.4
439.381	662.2
439.791	665
440.201	646.2
440.589	673.8
440.999	677
441.409	679.6
441.819	676
442.23	696.2
442.619	702.4
443.029	694.8
443.439	707.2
443.85	707.4
444.26	713.6
444.649	709
445.06	713.6
445.471	711.4
445.881	713.4
446.292	740.4
446.682	750.8
447.092	717.2
447.503	768.4
447.914	733
448.325	724
448.715	734.4
449.126	728
449.537	741.4
449.948	734.2
450.338	742
450.75	747.2
451.161	743.8
451.572	746.8
451.984	737.6
452.374	728
452.786	741.8
453.197	746
453.609	757.2
453.999	735.2
454.411	741.4
454.823	754.8
455.235	748.8
455.647	752.4
456.037	757
456.449	730.6
456.862	755.8
457.274	759
457.665	746.6
458.077	763.6
458.489	778.4
458.902	760.8
459.293	757.6
459.705	761
460.118	755.8
460.53	759.8
460.921	760
461.334	758.4
461.747	767
462.16	770.8
462.551	779.6
462.964	770.2
463.377	750.6
463.79	774.4
464.182	769.8
464.595	766.2
465.008	776.4
465.421	782.2
465.813	769.8
466.226	785.2
466.64	773
467.053	813.6
467.445	789.8
467.859	794.2
468.272	772.2
468.686	783.4
469.078	769.8
469.492	778.6
469.906	784.8
470.298	780.2
470.712	769.2
471.126	825.6
471.54	766.6
471.933	766.8
472.347	764.6
472.761	785.4
473.175	777.6
473.568	778.8
473.982	768.4
474.397	779.4
474.79	782.4
475.204	786.6
475.619	776
476.033	780.6
476.426	774.4
476.841	783
477.256	801.4
477.649	763.6
478.064	765.2
478.479	761
478.872	768.8
479.287	751.2
479.702	760.8
480.118	763.6
480.511	768.2
480.927	774.8
481.342	768
481.736	767
482.151	769.2
482.566	775
482.96	768.2
483.376	769.2
483.792	772.4
484.186	776.4
484.602	766.2
485.017	768
485.412	772.6
485.827	772.2
486.243	767.8
486.638	798.2
487.054	773.2
487.47	781.6
487.865	760.4
488.281	764.8
488.697	754
489.092	754.6
489.508	752.6
489.925	759.6
490.32	738.6
490.736	763.2
491.153	755
491.548	752.6
491.964	751.8
492.381	743.6
492.776	748.4
493.193	752.4
493.61	756.2
494.006	738.2
494.422	751.8
494.84	737
495.235	745.4
495.652	751.4
496.069	737.2
496.465	736.6
496.883	736.6
497.3	765
497.696	736.6
498.113	757.4
498.509	723.4
498.927	724.2
499.344	734.6
499.741	729.8
500.158	733.8
500.576	741.8
500.973	730
501.39	725
501.787	720.2
502.205	729.4
502.623	726.8
503.02	714.6
503.438	720
503.856	724.2
504.253	720
504.671	720.4
505.068	715.2
505.486	721.4
505.905	742.4
506.302	725.2
506.72	719
507.118	713.2
507.536	706.2
507.955	706.8
508.352	713.8
508.771	715
509.169	716.4
509.587	695
510.006	713.2
510.404	702.6
510.823	699.2
511.221	700.8
511.64	705.4
512.038	718.6
512.457	699.2
512.877	703.8
513.275	706.8
513.694	701.6
514.092	698
514.512	700.8
514.91	703.8
515.33	691.2
515.749	702.8
516.148	698.6
516.568	691.6
516.966	691.4
517.386	685.6
517.785	691
518.205	689.8
518.603	674.2
519.024	686.6
519.444	694
519.843	688
520.263	689.6
520.662	691.8
521.082	683.6
521.481	690.8
521.902	674.2
522.301	685
522.722	688
523.121	674.8
523.542	673.8
523.963	685.4
524.362	682.6
524.783	677
525.183	671.4
525.604	683.6
526.003	665.6
526.425	662.2
526.824	679.2
527.246	678
527.646	682.2
528.067	675
528.467	678.4
528.888	679.6
529.289	668.4
529.71	662.2
530.11	661.8
530.532	668.8
530.932	660.4
531.354	654.2
531.755	692.8
532.176	663
532.577	661.4
532.999	669.4
533.4	654.2
533.822	667.2
534.223	669.2
534.645	655
535.046	658.6
535.468	664.8
535.869	669.8
536.292	648.2
536.693	687.8
537.115	652.8
537.516	650
537.939	650.4
538.34	674
538.742	662.2
539.165	658.4
539.566	649.2
539.989	643.4
540.391	644.6
540.814	652.8
541.216	650.2
541.639	657.2
542.041	662.8
542.464	656.6
542.866	643.2
543.268	646.8
543.691	653.8
544.093	663
544.517	673.4
544.919	640.4
545.343	670.6
545.745	641
546.147	650
546.571	647.6
546.974	642.2
547.398	643.6
547.8	657.4
548.224	651
548.627	643.6
549.03	644
549.454	629.8
549.857	627.6
550.281	625.4
550.684	627.8
551.087	652
551.512	647.2
551.915	643.2
552.34	637
552.743	638.2
553.146	638.4
553.571	636.8
553.975	652.4
554.399	632.8
554.803	685.2
555.207	629.8
555.632	631.4
556.036	636.4
556.461	633.4
556.865	638.4
557.268	628.2
557.694	633.4
558.098	638.4
558.502	639
558.927	625.8
559.332	641.2
559.736	626.8
560.162	643.2
560.566	635.2
560.992	636.4
561.396	628.6
561.801	627
562.227	626
562.631	630.2
563.036	623.8
563.462	634.6
563.867	626
564.272	615.4
564.698	622.2
565.103	611
565.508	639.8
565.935	628.2
566.34	629
566.745	633.6
567.172	620
567.577	638.8
567.982	623
568.409	630.6
568.815	612.8
569.22	626.2
569.626	628.8
570.053	612.4
570.459	621.6
570.865	626.8
571.292	634.6
571.698	632.2
572.104	608.6
572.531	613.8
572.937	636.6
573.343	623.6
573.75	626.8
574.177	621
574.583	621.8
574.99	618.4
575.396	626.4
575.824	612.2
576.231	628.2
576.637	619
577.065	643.6
577.472	611.6
577.879	610.4
578.286	635.4
578.714	613.6
579.121	614.6
579.528	619.8
579.935	621
580.364	610.4
580.771	604.8
581.178	597.2
581.585	623.8
582.014	623.8
582.421	611.6
582.829	609
583.236	613.6
583.644	608.2
584.073	611.4
584.481	619.2
584.889	601.6
585.296	608.2
585.726	601.8
586.134	604.6
586.542	605.4
586.95	628.6
587.358	607.8
587.787	610
588.196	618.2
588.604	610.2
589.012	610.4
589.421	599.6
589.851	600.8
590.259	617.2
590.668	605.8
591.076	647
591.485	603
591.894	610.8
592.324	619.6
592.733	623.6
593.142	607.8
593.551	615
593.96	648.8
594.369	598
594.8	603.6
595.209	607.4
595.618	597.4
596.028	614.6
596.437	606.6
596.847	610.4
597.256	611
597.687	613.6
598.097	612.8
598.507	606.8
598.917	613.2
599.327	618.6
599.736	619.2
600.146	624.8
600.556	614.4
600.988	626
601.398	608.4
601.808	622
602.219	602.4
602.629	612.4
603.039	608.4
603.45	635.4
603.86	609.4
604.271	624.8
604.703	613.4
605.114	614.4
605.525	606.6
605.935	610.2
606.346	633.2
606.757	610.8
607.168	614.4
607.579	604.4
607.99	625.2
608.402	612
608.813	618.2
609.224	600
609.636	603.2
610.047	614.8
610.48	611.6
610.892	618.8
611.303	626
611.715	612.4
612.127	607.4
612.539	608
612.95	614.4
613.362	604
613.774	603.4
614.186	613.8
614.599	612.8
615.011	624.6
615.423	616.4
615.835	607.2
616.248	597.2
616.66	614.8
617.073	608.4
617.485	617.2
617.898	613.6
618.311	620.2
618.723	609
619.136	644.8
619.549	618
619.962	632
620.375	617
620.788	616.8
621.201	606.6
621.614	623.6
622.028	622
622.441	621.8
622.854	629.4
623.268	606.6
623.681	619.4
624.095	609.4
624.509	622
624.922	621.4
625.336	602.4
625.728	614.8
626.142	624.2
626.556	627.6
626.97	624
627.384	612.8
627.799	616
628.213	623.4
628.627	611
629.041	613.2
629.456	611.8
629.87	619.2
630.285	621.2
630.699	624
631.093	620.2
631.507	616
631.922	616.4
632.337	631
632.752	594.4
633.167	605.4
633.582	608
633.997	613.6
634.412	611.6
634.806	614
635.221	603.8
635.637	618
636.052	605.6
636.468	618
636.883	636.4
637.299	609.6
637.715	601
638.109	607.6
638.525	605
638.941	625
639.357	608
639.773	623.6
640.189	614
640.584	611.8
641	612.6
641.416	604.6
641.832	608
642.249	607
642.665	605.8
643.06	611.6
643.477	613.4
643.894	601.6
644.31	598.4
644.727	602
645.123	602.2
645.54	600
645.957	602.6
646.374	613
646.77	610.2
647.187	627.4
647.604	609.4
648.021	584.2
648.439	597
648.835	602.2
649.252	604.4
649.67	603.6
650.088	603.8
650.484	599.6
650.902	613.2
651.32	613.6
651.738	600.8
652.134	608.6
652.552	620.4
652.971	611.4
653.389	603.8
653.786	622.2
654.204	627
654.622	594.8
655.019	601
655.438	609.4
655.857	589.6
656.275	609
656.673	596.8
657.091	603.4
657.51	595
657.908	611.4
658.327	618.4
658.746	588.8
659.144	597
659.563	615.2
659.982	604.6
660.38	587.4
660.8	597.4
661.219	609.6
661.617	602.2
662.037	609
662.457	601.2
662.855	593.8
663.275	624.2
663.695	599
664.094	595.8
664.514	611
664.934	592
665.333	613.6
665.753	597.2
666.152	594.4
666.572	596.6
666.993	608.2
667.392	593.2
667.812	594.2
668.212	599.6
668.632	614.6
669.053	589.4
669.453	607
669.874	604.4
670.273	598.6
670.694	590.4
671.116	614.4
671.515	604.4
671.937	593.6
672.337	599.6
672.758	596.4
673.158	605.2
673.58	595.8
673.98	601.6
674.402	608.2
674.824	602.4
675.224	592
675.646	589.6
676.047	591.8
676.469	596
676.869	600.4
677.292	592.2
677.693	592
678.115	590.2
678.516	599.4
678.939	594.8
679.34	598.6
679.762	608.6
680.164	604.2
680.586	586.2
680.988	595.8
681.411	608.2
681.812	594.4
682.236	581.2
682.637	576.8
683.061	585
683.462	598.2
683.864	586.8
684.288	594.8
684.69	581.4
685.114	603.2
685.516	605
685.94	588.2
686.342	607.2
686.766	587.6
687.168	593.2
687.571	605.6
687.995	592
688.398	588.4
688.822	589.8
689.225	607.4
689.628	613.4
690.052	593.8
690.456	595.4
690.88	580.2
691.284	583.4
691.687	600.6
692.112	585.4
692.515	582.8
692.919	591.2
693.344	599.4
693.747	592.2
694.173	585
694.577	607.6
694.98	595
695.406	588.2
695.81	590.6
696.214	600.2
696.64	588
697.044	595
697.448	599.4
697.874	600
698.279	588.6
698.684	583.4
699.11	582.6
699.514	588.4
699.919	585
700.324	585.6
700.75	592.2
701.156	587.8
701.561	601
701.987	593.8
702.393	598.2
702.798	607.8
703.203	595.4
703.63	584.4
704.036	600
704.442	596.2
704.847	588.8
705.274	585.4
705.68	595
706.086	601.8
706.492	582
706.92	593.8
707.326	596.2
707.732	586.6
708.139	585.4
708.545	585.6
708.973	592.2
709.38	587.8
709.786	574.8
710.193	606.4
710.6	583.8
711.028	580.4
711.435	587
711.842	587
712.249	593
712.656	587.2
713.064	593.6
713.492	574
713.9	579.2
714.307	588.2
714.715	584.4
715.123	590.8
715.53	581.8
715.938	596.4
716.367	597.2
716.775	588
717.184	574.2
717.592	578.6
718	593
718.408	621.2
718.816	628
719.225	589
719.633	587.6
720.042	583
720.472	580.6
720.881	605.8
721.29	591.4
721.699	575.8
722.108	597.6
722.517	587.4
722.926	579.4
723.335	588.4
723.744	583.6
724.154	583
724.563	595.6
724.973	584
725.382	590.2
725.792	585
726.202	581
726.612	610.8
727.022	588.4
727.432	578
779.813	575.6
780.223	624.8
780.634	584.2
781.044	582.8
781.454	588.6
781.865	595
782.276	580.8
782.686	590.4
783.097	588.2
783.508	588.8
783.919	582
784.33	601.2
784.741	594.4
785.152	582.2
785.563	571
785.974	581.6
786.386	595.2
786.776	581.2
787.188	589
787.599	576.4
788.011	588.8
788.423	583
788.835	580.8
789.247	572.8
789.659	582.8
790.071	589.2
790.483	621.2
790.874	591
791.286	588.8
791.699	579.8
792.111	583
792.524	576.8
792.937	581.2
793.349	576.8
793.741	577.4
794.154	573.2
794.567	600.2
794.98	579.4
795.393	564.6
795.785	605.6
796.198	572
796.612	588
797.026	581.2
797.439	573.6
797.831	584.8
798.245	575.4
798.659	578.2
799.073	581
799.487	573
799.88	588.8
800.294	575.6
800.708	591
801.123	588.8
801.516	602.4
801.93	568
802.345	564.6
802.76	588.4
803.153	591.8
803.568	598.6
803.983	590.8
804.377	579.8
804.792	567.4
805.207	574
805.601	585.6
806.016	618
806.432	578.4
806.826	614.6
807.242	598.8
807.658	587
808.052	588.8
808.468	580.2
808.884	566.8
809.279	582.8
809.695	592.6
810.111	604.6
810.506	584
810.922	605
811.339	590
811.734	589.4
812.151	580.2
812.546	585
812.963	581.8
813.38	591.4
813.776	583
814.193	606.4
814.589	576.2
815.006	577.6
815.402	566
815.82	582.6
816.237	586
816.633	590.4
817.051	573.2
817.448	592
817.866	579
818.262	610
818.68	583.6
819.077	582.4
819.495	581.2
819.892	629.6
820.311	572.6
820.708	585.6
821.127	582.4
821.524	594.2
821.943	588.8
822.34	601
822.759	590.6
823.157	585.2
823.576	597.4
823.974	583.8
824.393	609.4
824.791	583.4
825.189	582.6
825.609	581
826.007	586.6
826.427	572
826.826	583.8
827.246	589.4
827.644	565.8
828.043	588.8
828.463	578.2
828.862	594
829.261	588
829.682	569.6
830.081	589.6
830.502	579.2
830.901	586.6
831.301	595.6
831.722	566.6
832.121	583.2
832.521	573.8
832.943	585.8
833.342	580
833.742	569.4
834.164	580
834.564	566
834.965	578.8
835.386	577.4
835.787	580.4
836.188	587.6
836.588	582
837.01	587.8
837.411	579.2
837.812	585
838.213	591.8
838.636	571.2
839.037	650.4
839.438	588.2
839.84	593.2
840.263	595.6
840.664	585.8
841.066	582.4
841.468	589.6
841.891	578.8
842.293	599.6
842.695	589.2
843.098	601.2
843.5	585.8
843.902	585.2
844.326	588.8
844.729	587.4
845.131	594
845.534	586
845.937	600.2
846.34	596.6
846.764	571.4
847.167	594
847.571	576.8
847.974	579.8
848.377	589
848.781	639
849.184	601.2
849.588	576
849.992	577
850.396	584
850.821	602.2
851.225	590.8
851.63	584
852.034	585
852.438	579.6
852.843	659.2
853.247	577.8
853.652	581.6
854.057	601.2
854.462	599
854.867	588.2
855.272	616
855.677	591.2
856.082	575.2
856.487	573.2
856.893	585.2
857.298	580.2
857.704	580.8
858.11	584.8
858.516	591.8
858.922	580.2
859.328	596.4
859.734	585.4
860.14	590.2
860.525	584.4
860.931	574.8
861.338	584.8
861.745	582.6
862.151	593.6
862.558	587.4
862.965	574.6
863.372	575.4
863.779	576.8
864.186	595.6
864.572	584.4
864.98	590.8
865.387	611.2
865.795	573.6
866.203	591.4
866.61	576.2
867.018	597.8
867.405	589.4
867.813	577.6
868.221	578.6
868.63	576.8
869.038	595.4
869.425	620
869.834	578.8
870.243	573
870.652	572.6
871.039	583.2
871.448	577.2
871.857	590.2
872.266	589.8
872.654	591.4
873.064	582.2
873.473	598
873.883	569
874.271	573.8
874.681	594.2
875.091	568.6
875.48	588.2
875.89	598.4
876.3	585.6
876.689	567.8
877.1	583
877.51	587.6
877.9	606.4
878.31	579.2
878.721	616.6
879.111	589.2
879.522	578
879.933	575.8
880.323	565
880.734	581.4
881.125	591.2
881.536	585.6
881.948	578
882.338	584
882.75	594.4
883.141	577.8
883.553	584.6
883.944	599.6
884.356	592.2
884.769	580
885.16	576.2
885.573	590
885.964	579.2
886.377	586.2
886.768	570.4
887.181	569.4
887.573	572.4
887.987	582.2
888.378	590.2
888.792	581.4
889.184	614.6
889.598	567
889.99	587
890.383	567.4
890.797	568.4
891.19	591
891.604	568.8
891.997	566
892.411	568.8
892.805	574
893.198	578.4
893.613	568
894.006	579.4
894.421	565.4
894.815	578.8
895.209	579.2
895.624	617.2
896.018	600.8
896.412	575.2
896.828	586
897.222	583.8
897.617	572.6
898.033	598.2
898.427	578.8
898.822	575.4
899.239	567.2
899.634	574.4
900.029	592
900.424	573.4
900.841	560
901.236	590.4
901.632	588.6
902.027	643.4
902.445	583.2
902.841	581.4
903.237	584.6
903.633	592.8
904.05	585.8
904.447	584.2
904.843	589.4
905.24	573.8
905.636	574.6
906.033	589
906.451	592.6
906.848	563
907.246	573.2
907.643	578.8
908.04	580.6
908.438	591
908.835	587.4
909.254	578
909.652	583.8
910.05	573.6
910.448	577.6
910.846	581.4
911.244	572.2
911.643	583.8
912.041	578
912.44	594.6
912.839	577.8
913.237	575.6
913.636	578.8
914.035	582.8
914.434	578.8
914.834	589.8
915.233	588.6
915.633	575
916.032	573.4
916.432	572.6
916.832	599.2
917.232	580.4
917.632	561.2
918.032	582.6
918.432	577.8
918.833	589.8
919.233	579.2
919.634	564.8
920.035	587.2
920.436	575.4
920.837	577
921.238	576.2
921.639	582.4
922.019	581.4
922.42	584.8
922.822	583.2
923.224	584.4
923.625	576.8
924.027	579.4
924.429	597.6
924.81	582.6
925.212	586.8
925.615	578.6
926.017	581.2
926.42	596
926.801	567.4
927.204	573.6
927.607	581.6
928.01	592.8
928.413	572.2
928.795	567.6
929.199	573
929.602	567.6
930.006	565.4
930.388	570
930.792	585.2
931.196	576
931.579	613.4
931.983	568.2
932.388	617.4
932.771	585
933.176	569.8
933.58	573.6
933.964	583.2
934.369	570.8
934.774	581.4
935.158	574.6
935.563	577.6
935.947	586.2
936.353	583.4
936.759	571.2
937.143	580.8
937.549	584.4
937.934	596
938.34	590
938.746	571.8
939.131	583
939.538	574.6
939.923	579.2
940.33	573.6
940.716	580.2
941.123	583.6
941.508	584
941.916	596.2
942.302	580.2
942.709	569.6
943.096	572
943.503	577
943.89	577.4
944.298	571.8
944.685	612.2
945.072	580.4
945.48	583.2
945.867	574.2
946.276	576.6
946.663	595.6
947.051	592.2
947.46	584.2
947.848	592.2
948.257	575.4
948.645	589.8
949.033	575.4
949.443	567.6
949.831	616.6
950.22	578.4
950.63	584.6
951.018	599.6
951.407	572
951.796	572
952.207	585.4
952.596	584.2
952.985	567.6
953.375	621.4
953.786	575
954.176	569.4
954.566	583.6
954.956	561.4
955.367	576.6
955.758	589.2
956.148	568.2
956.539	582.6
956.929	572.2
957.341	571.4
957.732	574.2
958.123	586
958.515	570
958.906	580
959.297	573.6
959.689	577.2
960.102	571
960.494	580.4
960.886	575
961.278	580
961.67	598.4
962.062	608
962.455	572.4
962.847	572
963.24	563.6
963.633	573
964.026	560.6
964.419	577
964.812	585.2
965.206	573.4
965.599	587.4
965.993	566.2
966.386	576
966.78	583.8
967.174	587.2
967.569	574.2
967.963	567.6
968.357	575.2
968.752	566
969.146	576.2
969.541	576.2
969.936	578.4
970.331	579.2
970.705	569.8
971.1	577.2
971.496	580.6
971.892	575.4
972.287	573
972.683	573.8
973.079	577.8
973.454	585
973.85	582.6
974.247	582
974.643	609.8
975.04	578
975.415	584.6
975.812	570.2
976.209	577.2
976.607	564.2
976.982	586.6
977.38	589
977.778	579
978.175	566.6
978.552	575.4
978.95	585.6
979.348	582.8
979.725	616.8
980.123	577.4
980.522	568.8
980.899	576.8
981.298	565.4
981.697	571.2
982.075	576.4
982.474	568
982.852	585
983.251	572.6
983.651	569.2
984.029	574.4
984.429	575.6
984.808	565
985.208	575.8
985.609	570.2
985.987	558.6
986.388	575.6
986.768	586.2
987.168	570.8
987.548	584.4
987.949	586.6
988.329	577.6
988.731	555.4
989.111	570.6
989.491	578.8
989.893	568.6
990.273	576.4
990.676	567.2
991.057	564.8
991.459	572.8
991.84	575
992.221	566.4
992.624	593.6
993.006	585.6
993.388	572.2
993.791	581
994.173	583.2
994.576	601.8
994.959	561.6
995.341	572
995.724	570.6
996.128	575.4
996.511	578.2
996.894	577.4
997.298	575.2
997.681	586.8
998.065	572.8
998.448	568.2
998.854	583.4
999.237	573.8
999.621	587.2
1000.01	593
1000.39	579
1000.8	575.4
1001.18	590
1001.56	586
1001.95	578.8
1002.33	582
1002.72	578
1003.13	573.8
1003.51	575.2
1003.9	567
1004.28	594.8
1004.67	570.6
1005.06	581.2
1005.44	603.8
1005.83	568.8
1006.21	567.6
1006.6	570.6
1006.99	584.6
1007.37	593.8
1007.76	572.4
1060.12	575.8
1060.51	569.4
1060.89	586.6
1061.28	584.4
1061.67	586.4
1062.06	581.6
1062.45	573
1062.83	577.2
1063.22	575.4
1063.61	620.4
1064	585.2
1064.39	579.6
1064.78	571.2
1065.14	586.2
1065.53	574.2
1065.92	571
1066.31	578
1066.7	584.6
1067.09	591.4
1067.46	580.6
1067.85	576
1068.24	563.4
1068.63	580.6
1069.02	571.8
1069.39	582.8
1069.78	570
1070.17	575.8
1070.57	566.8
1070.93	573.8
1071.33	566.6
1071.72	576
1072.11	564.8
1072.48	575.4
1072.87	570.4
1073.26	574.8
1073.64	574.4
1074.03	568
1074.4	568.6
1074.79	575.6
1075.19	589
1075.56	589.4
1075.95	576.4
1076.34	580.2
1076.72	574
1077.11	574
1077.48	582.6
1077.88	580.8
1078.25	565.6
1078.64	587
1079.02	571.2
1079.41	583
1079.78	567.4
1080.18	572.4
1080.55	640
1080.95	574.8
1081.32	572
1081.72	594
1082.09	573.4
1082.49	568
1082.86	575
1083.24	568.6
1083.63	566
1084.01	578
1084.38	586.6
1084.78	572.6
1085.16	581.4
1085.55	584.8
1085.93	593.2
1086.31	564.4
1086.7	604
1087.08	581.4
1087.46	578.6
1087.83	567.8
1088.23	582.6
1088.61	569.6
1088.99	574.8
1089.36	572.2
1089.76	570.4
1090.14	568.8
1090.52	580.8
1090.9	570.2
1091.27	593.2
1091.67	596.2
1092.05	582
1092.43	565.8
1092.81	588.2
1093.19	582.6
1093.57	567.4
1093.95	570.4
1094.35	583.6
1094.73	575.6
1095.11	566.8
1095.49	574.8
1095.87	570.4
1096.25	582.2
1096.63	584.2
1097.01	566.8
1097.39	572.4
1097.77	572.6
1098.15	573.6
1098.53	562
1098.91	568.8
1099.29	567.6
1099.68	584.8
1100.06	575.6
1100.44	580
1100.82	579.8
1101.18	579.2
1101.56	575.4
1101.95	560.6
1102.33	570.8
1102.71	572.8
1103.1	565.6
1103.48	570.8
1103.86	564
1104.22	580.4
1104.61	571
1104.99	574
1105.38	571
1105.76	570.2
1106.12	573.2
1106.51	604.8
1106.89	581.2
1107.26	575.2
1107.64	580
1108.03	565.8
1108.41	573
1108.78	567.6
1109.16	579.6
1109.55	581.8
1109.91	563.2
1110.3	555.2
1110.69	579
1111.05	570.6
1111.44	571.2
1111.8	574.6
1112.19	579.2
1112.58	584
1112.94	569.4
1113.33	569.8
1113.7	568.8
1114.09	570.8
1114.45	567
1114.84	569.6
1115.21	581.8
1115.6	578.6
1115.96	583.8
1116.35	582.8
1116.72	576
1117.11	580.6
1117.48	565.4
1117.85	579.6
1118.24	589.8
1118.6	575.8
1118.99	574
1119.36	577.2
1119.73	574.8
1120.12	569.2
1120.49	563.4
1120.86	585.4
1121.25	566.4
1121.62	558.4
1121.99	567.4
1122.38	576
1122.76	570.6
1123.13	570.4
1123.5	576
1123.89	581.6
1124.26	557.2
1124.63	575.8
1125	575.4
1125.4	574.8
1125.77	569
1126.14	559.4
1126.51	566.2
1126.88	579.6
1127.26	562.2
1127.63	555.4
1128.02	561
1128.4	560
1128.77	566.2
1129.14	567.8
1129.52	566.2
1129.89	571.4
1130.26	567.6
1130.64	554.4
1131.01	564.8
