#lambda/nm	C1
208.295	515.4
208.67	461.8
209.045	426.6
209.419	433.4
209.794	613
210.169	599.4
210.544	719.6
210.919	623
211.295	612.4
211.67	619.8
212.045	603.4
212.421	618.2
212.796	659.4
213.172	610.2
213.547	614.2
213.923	612
214.299	609.6
214.675	621.6
215.051	620
215.427	628
215.803	629.6
216.179	621.4
216.555	605
216.932	632
217.308	623.2
217.684	618
218.061	618
218.438	617.2
218.814	601.2
219.191	623.2
219.568	614.8
219.945	613.4
220.322	619.2
220.699	623.8
221.076	629.2
221.453	628.8
221.83	610.6
222.208	615.8
222.585	612.2
222.962	616
223.34	622.8
223.717	614.4
224.095	609
224.473	621.2
224.851	610.8
225.229	588
225.607	630.8
225.985	599.6
226.363	609.6
226.741	617
227.119	613.6
227.497	623.8
227.876	604.6
228.254	614.2
228.633	618.2
229.011	624.2
229.39	624.8
229.769	627.8
230.148	619.8
230.527	631.6
230.905	620.6
231.284	617.2
231.664	610.8
232.043	627.6
232.422	628.6
232.801	609.8
233.181	626.4
233.56	609.8
233.94	619.4
234.319	603.4
234.699	617
235.079	650
235.458	654.6
235.838	630.8
236.218	610.2
236.598	603
236.978	611.6
237.358	613.8
237.738	602.4
238.119	629.2
238.499	608.4
238.88	617.2
239.26	635.2
239.641	608.4
240.021	607.6
240.402	619
240.783	611.6
241.163	613.8
241.544	619.4
241.925	617.6
242.306	633.2
242.687	625.2
243.069	620
243.45	620.4
243.831	609.2
244.212	622.6
244.594	651.4
244.975	634.8
245.357	623.4
245.739	611.4
246.12	620
246.502	626.4
246.884	619.4
247.266	603.8
247.648	615.2
248.03	646.4
248.412	621
248.794	619.8
249.176	609
249.559	629.4
249.941	610.2
250.323	609
250.706	605.6
251.089	619
251.471	617.6
251.854	615.4
252.237	612.2
252.62	624.4
253.002	613.6
253.385	613.2
253.769	632.4
254.152	614.6
254.535	624.6
254.918	606.8
255.301	612.6
255.685	606.8
256.068	608.2
256.452	639.8
256.835	621.2
257.219	622.2
257.603	624.4
257.986	604.2
258.37	623
258.754	602.2
259.138	622
259.522	625.6
259.906	614.6
260.29	620.4
260.675	619
261.059	617.8
261.443	601.6
261.828	618.2
262.212	611.4
262.597	606.6
262.981	609.6
263.366	625
263.751	614.6
264.136	608
264.521	620
264.906	610
265.291	625.6
265.676	619.8
266.061	622.2
266.446	628.6
266.831	616
267.217	637.2
267.602	619.6
267.987	625.2
268.373	621.8
268.759	633.8
269.144	624.2
269.53	619.4
269.916	611.4
270.302	612.2
270.688	620.8
271.074	623.8
271.46	632.4
271.846	650.6
272.232	623.4
272.618	617
273.004	616.8
273.391	626.6
273.777	631
274.164	622.6
274.55	632
274.937	618
275.324	623.6
275.71	623
276.097	625.4
276.484	609.6
276.871	622.8
277.258	622
277.645	601.8
278.032	615.2
278.419	606.8
278.807	622.4
279.194	614
279.581	612.8
279.969	625.4
280.356	613.2
280.744	623.6
281.131	643
281.519	627
281.907	607.2
282.295	619
282.682	632
283.07	612
283.458	628.2
283.846	621.2
284.235	631.2
284.623	631.8
285.011	603.2
285.399	623.8
285.788	620.8
286.176	607.8
286.565	624.2
286.953	602.8
287.342	612.4
287.731	611.2
288.119	605.8
288.508	608.8
288.897	610.8
289.286	600.8
289.675	614
290.064	620.2
290.453	607.2
290.821	623
291.21	629.4
291.599	609.2
291.989	624.2
292.378	622
292.768	638.6
293.157	620.6
293.547	626.8
293.936	616
294.326	602.4
294.716	621
295.106	615.2
295.496	621.8
295.886	624.4
296.276	613.4
296.666	613.2
297.056	612.6
297.446	605.8
297.836	636.2
298.227	614.8
298.617	619
299.008	627.6
299.398	618.8
299.789	607
300.179	622.2
300.57	628.2
300.961	614
301.352	611
301.742	621
302.133	625.8
302.524	624.8
302.915	618
303.307	610
303.698	623.4
304.089	624.4
304.48	613.6
304.872	623
305.263	629
305.655	606
306.046	622.2
306.438	623
306.829	613.6
307.221	636.6
307.613	626.2
308.005	636.8
308.397	637.2
308.789	640.4
309.181	642.4
309.573	635.6
309.965	626.8
310.357	613.8
310.749	627.2
311.142	607
311.534	616.4
311.926	632.4
312.319	630
312.711	605.4
313.104	628
313.497	614.4
313.889	665.8
314.282	635.6
314.675	646.6
315.068	621.2
315.461	626.8
315.854	653.6
316.247	631
316.64	617.2
317.033	617.2
317.405	623.8
317.798	614.2
318.192	630.2
318.585	617.2
318.979	619.2
319.372	609.4
319.766	611.2
320.16	621.6
320.553	633.8
320.947	649.2
321.341	615.4
321.735	618
322.129	603
322.523	642.8
322.917	616.4
323.311	632.4
323.705	617.2
324.099	618.2
324.494	636
324.888	629.2
325.282	611.8
325.677	626.4
326.071	625.6
326.466	621.6
326.861	623.6
327.255	632.8
327.65	631
328.045	634.8
328.44	624
328.835	620.8
329.23	614.6
329.625	640.4
330.02	614.2
330.415	639.8
330.81	617.4
331.206	623.6
331.601	619.6
331.996	626
332.37	641.4
332.766	610.4
333.161	646.6
333.557	611.6
333.953	619
334.348	1037.6
334.744	613.4
335.14	606.4
335.536	611
335.932	627.4
336.328	614
336.724	631
337.12	620.2
337.516	619.6
337.913	620.4
338.309	630
338.705	620.6
339.102	625.4
339.498	624
339.895	627.6
340.291	617.6
340.688	623.2
341.085	605.6
341.481	624
341.878	611.6
342.275	634.6
342.672	610
343.069	619.4
343.466	612
343.842	633.2
344.239	611
344.636	617
345.033	611.2
345.431	605.4
345.828	619.8
346.225	617.6
346.623	654.2
347.02	617.2
347.418	622.8
347.816	626.6
348.213	606.6
348.611	621.8
349.009	610.6
349.407	627
349.805	613
350.203	595.6
350.601	628.6
350.999	610.4
351.397	668.8
351.795	625
352.193	620.4
352.57	623
352.969	635.2
353.367	603.2
353.766	601
354.164	602.2
354.563	613.8
354.961	614
355.36	607
355.759	608.4
356.158	610.6
356.557	609.8
356.956	611
357.355	597.4
357.754	604.4
358.153	610
358.552	639
358.951	608.8
359.35	624.8
359.75	608.6
360.149	615.6
360.527	597.8
360.926	606.4
361.326	612.4
361.726	611.4
362.125	604.6
362.525	621.6
362.925	608.2
363.325	606.4
363.724	616
364.124	606.6
364.524	602.4
364.924	618.4
365.324	630.6
365.725	589.2
366.125	624.8
366.525	607.8
366.904	608.2
367.304	591
367.705	630.8
368.105	628.8
368.506	607.4
368.906	608.4
369.307	608.8
369.708	620.8
370.108	594.2
370.509	618.2
370.91	598.6
371.311	617.4
371.712	614.8
372.113	606.6
372.514	601.4
372.894	613.8
373.295	598.2
373.696	622.6
374.097	620.8
374.499	640
374.9	614.4
375.301	599.4
375.703	616.8
376.105	604.8
376.506	613.6
376.908	614.8
377.309	610.4
377.711	613.4
378.113	608
378.493	607.4
378.895	607.4
379.297	623.4
379.699	600.8
380.102	612.2
380.504	608
380.906	608
381.308	641.2
381.71	609.4
382.113	617
382.515	610.2
382.918	614.8
383.299	604.4
383.701	617.4
384.104	607.8
384.507	584.6
384.909	600.4
385.312	597.4
385.715	596.2
386.118	610.4
386.521	587.2
386.924	614.8
387.327	596.6
387.709	602
388.112	590.4
388.515	603.6
388.918	607.4
389.322	608.4
389.725	603.4
390.129	628.8
390.532	611.8
390.936	607.6
391.339	593.2
391.743	611
392.125	596.2
392.529	610.2
392.933	623
393.337	602
393.74	611.6
394.144	613
394.548	599.6
394.953	606.6
395.357	610.6
395.761	602.8
396.144	605
396.548	610.6
396.952	599.6
397.357	605.2
397.761	609.8
398.166	606.6
398.57	594.6
398.975	592.2
399.379	611.8
399.763	660
400.168	614.2
400.572	606
400.977	606.8
401.382	628.8
401.787	618.8
402.192	626
402.597	627.8
403.002	595
403.386	620
403.791	628.8
404.197	599.8
404.602	616.4
405.007	607.2
405.413	605.4
405.818	609.8
406.224	609.4
406.608	612
407.014	599.8
407.42	627.8
407.825	605.8
408.231	621.8
408.637	615
409.043	627.6
409.449	604
409.834	603
410.24	607.8
410.646	621.6
411.052	622.2
411.458	617.2
411.865	612.4
412.271	618.8
412.677	612.6
413.062	615.8
413.469	599.2
413.875	632.8
414.282	624
414.689	614.8
415.095	621.2
415.502	606.6
415.888	608.2
416.294	597.8
416.701	657.2
417.108	610.4
417.515	609
417.923	608
418.33	627.4
418.715	621
419.123	607.4
419.53	602
419.937	606.2
420.345	622.2
420.752	606.8
421.16	625
421.546	611.8
421.953	615.8
422.361	604.8
422.769	612.2
423.177	602.2
423.585	638.4
423.992	633.6
424.379	615.8
424.787	619.8
425.195	638
425.603	609.4
426.011	622.2
426.419	627.6
426.806	623.8
427.214	613.2
427.623	622.2
428.031	630.2
428.44	615.6
428.848	622.6
429.235	633.2
429.644	614.6
430.053	614.2
430.461	630.8
430.87	636
431.279	621.6
431.666	611.4
432.075	619
432.484	624.6
432.893	610.8
433.302	638
433.711	657.8
434.099	625.6
434.508	616.2
434.918	616
435.327	636.6
435.737	632.6
436.125	636.6
436.534	645.4
436.944	657.4
437.353	651.4
437.763	672.4
438.173	650.4
438.561	676.4
438.971	643.6
439.381	665.4
439.791	673.4
440.201	670.4
440.589	684.6
440.999	692.6
441.409	695.2
441.819	683.6
442.23	717.8
442.619	713.2
443.029	702.2
443.439	706.4
443.85	723.8
444.26	727
444.649	724.6
445.06	718
445.471	722.2
445.881	725.2
446.292	747.8
446.682	748.8
447.092	725.6
447.503	793.6
447.914	751.8
448.325	745.6
448.715	744.2
449.126	746
449.537	758
449.948	762.6
450.338	763.6
450.75	773
451.161	760.8
451.572	767.8
451.984	758.4
452.374	747.2
452.786	763.2
453.197	771
453.609	773.2
453.999	758.4
454.411	757
454.823	781.4
455.235	781.2
455.647	777.8
456.037	792.4
456.449	769.8
456.862	775.2
457.274	781.8
457.665	776.8
458.077	790
458.489	821.2
458.902	779
459.293	788.8
459.705	782.4
460.118	775.8
460.53	800.2
460.921	795
461.334	805.2
461.747	802.4
462.16	809.8
462.551	811.2
462.964	798.6
463.377	788.2
463.79	791.8
464.182	806.2
464.595	801.4
465.008	805.6
465.421	810.2
465.813	805
466.226	812.8
466.64	808.4
467.053	859.4
467.445	819
467.859	827.4
468.272	811.8
468.686	835.4
469.078	816.8
469.492	807
469.906	805.8
470.298	809.8
470.712	815.4
471.126	859
471.54	804.8
471.933	801.6
472.347	812.2
472.761	815.2
473.175	808.8
473.568	808.6
473.982	807.8
474.397	809
474.79	807.2
475.204	822.8
475.619	815.6
476.033	807.6
476.426	813
476.841	808.4
477.256	845.2
477.649	797.8
478.064	802.6
478.479	798.8
478.872	809.6
479.287	814.4
479.702	794
480.118	813.2
480.511	799.4
480.927	799
481.342	790.2
481.736	804.8
482.151	787.6
482.566	805.4
482.96	798.6
483.376	807.2
483.792	783.8
484.186	806.8
484.602	793.4
485.017	801.2
485.412	794.8
485.827	790
486.243	803.4
486.638	813.8
487.054	803.4
487.47	799.2
487.865	787.8
488.281	780.4
488.697	773.6
489.092	790.2
489.508	790
489.925	798.8
490.32	765.4
490.736	789.4
491.153	794
491.548	777.8
491.964	787.6
492.381	761.2
492.776	786.2
493.193	784
493.61	784.4
494.006	777.2
494.422	788.6
494.84	762.8
495.235	776.8
495.652	769
496.069	768.6
496.465	761.6
496.883	768.2
497.3	797
497.696	759
498.113	771
498.509	759.2
498.927	750.8
499.344	758.4
499.741	760.8
500.158	771.4
500.576	771.4
500.973	760.4
501.39	743.4
501.787	748.6
502.205	763.2
502.623	742.6
503.02	734.8
503.438	748.8
503.856	754.6
504.253	753.2
504.671	744.4
505.068	734.8
505.486	738.4
505.905	755.6
506.302	745.6
506.72	747.2
507.118	743.8
507.536	737.6
507.955	730
508.352	735.8
508.771	731.2
509.169	743
509.587	729.6
510.006	732
510.404	722
510.823	720.8
511.221	728.6
511.64	719.4
512.038	737.2
512.457	726.6
512.877	720
513.275	722.8
513.694	722.6
514.092	717.8
514.512	723.8
514.91	729
515.33	716.2
515.749	723.6
516.148	715.2
516.568	712.8
516.966	708.2
517.386	698.2
517.785	706.8
518.205	705.4
518.603	702.6
519.024	692.8
519.444	694
519.843	719.2
520.263	706.4
520.662	707.6
521.082	696.4
521.481	703.8
521.902	690.6
522.301	706
522.722	700.2
523.121	693.2
523.542	687.2
523.963	684.6
524.362	695.6
524.783	688.2
525.183	686.6
525.604	692.2
526.003	688.4
526.425	679.6
526.824	689.4
527.246	695.8
527.646	695
528.067	683
528.467	690
528.888	697.6
529.289	677.8
529.71	678.4
530.11	674.2
530.532	684.6
530.932	664.4
531.354	671.2
531.755	700.6
532.176	678.4
532.577	665.6
532.999	678.4
533.4	669.6
533.822	680.6
534.223	674.6
534.645	681.8
535.046	661.4
535.468	675.4
535.869	682.4
536.292	664.8
536.693	700.8
537.115	673.6
537.516	655.6
537.939	665.2
538.34	680
538.742	678
539.165	666.6
539.566	670.2
539.989	653
540.391	655.6
540.814	660.6
541.216	666.6
541.639	653.8
542.041	664.8
542.464	660.6
542.866	653.6
543.268	648.4
543.691	658.2
544.093	657.2
544.517	676.2
544.919	649
545.343	673.8
545.745	645.6
546.147	649
546.571	650.6
546.974	647.6
547.398	653.4
547.8	662.6
548.224	638.8
548.627	646.8
549.03	657
549.454	643.8
549.857	645.2
550.281	640.6
550.684	649.6
551.087	658.8
551.512	642.4
551.915	640.6
552.34	639.6
552.743	644.6
553.146	652.6
553.571	650
553.975	655.4
554.399	638.2
554.803	695.2
555.207	635.8
555.632	631.4
556.036	640.8
556.461	640.2
556.865	642.4
557.268	642.2
557.694	632.8
558.098	639.2
558.502	642.8
558.927	639.6
559.332	641.4
559.736	638.2
560.162	629
560.566	633.2
560.992	632.6
561.396	634
561.801	624.6
562.227	640.4
562.631	636.2
563.036	633
563.462	633.2
563.867	645.6
564.272	614.2
564.698	628.6
565.103	620.4
565.508	640
565.935	629.6
566.34	633
566.745	641.2
567.172	628.4
567.577	655.6
567.982	630
568.409	629.2
568.815	617.2
569.22	618
569.626	632.2
570.053	613.6
570.459	626.8
570.865	632.8
571.292	623.2
571.698	628
572.104	608.2
572.531	612
572.937	635.4
573.343	626.8
573.75	613.2
574.177	632.2
574.583	630.2
574.99	624
575.396	628
575.824	615.6
576.231	628.6
576.637	612.4
577.065	643.8
577.472	610.6
577.879	617.2
578.286	642
578.714	606.8
579.121	612
579.528	615.8
579.935	626.4
580.364	617.4
580.771	595
581.178	599.8
581.585	609
582.014	620.8
582.421	611.8
582.829	608.6
583.236	619.2
583.644	614.4
584.073	614.8
584.481	615.6
584.889	609.6
585.296	620.6
585.726	615.2
586.134	601.4
586.542	609.6
586.95	624.2
587.358	600.4
587.787	611.4
588.196	615.8
588.604	606.8
589.012	610
589.421	600.8
589.851	596.6
590.259	611.4
590.668	602.6
591.076	648
591.485	595.4
591.894	602.8
592.324	616.4
592.733	624.6
593.142	596.2
593.551	597.8
593.96	646
594.369	595.2
594.8	598.8
595.209	598
595.618	595.4
596.028	601.2
596.437	599.6
596.847	607.4
597.256	610.2
597.687	616.4
598.097	600.4
598.507	600
598.917	613.4
599.327	612.6
599.736	608.8
600.146	614
600.556	600.4
600.988	617.4
601.398	605.8
601.808	612.6
602.219	602.4
602.629	598.2
603.039	607
603.45	633.2
603.86	595.2
604.271	610.4
604.703	603
605.114	592.8
605.525	605.8
605.935	611.6
606.346	626.2
606.757	597.8
607.168	600.2
607.579	592.8
607.99	605.2
608.402	602.2
608.813	610.8
609.224	601.6
609.636	597
610.047	599
610.48	601
610.892	595.6
611.303	609.8
611.715	601
612.127	592.2
612.539	591.2
612.95	592
613.362	591
613.774	586.6
614.186	590.8
614.599	597.2
615.011	617.8
615.423	599.6
615.835	595.2
616.248	588.8
616.66	612.8
617.073	590.4
617.485	605.4
617.898	605.2
618.311	600.4
618.723	600.2
619.136	622.8
619.549	609.8
619.962	625.2
620.375	599
620.788	599.2
621.201	588.4
621.614	608
622.028	595.2
622.441	607.2
622.854	611.6
623.268	595.4
623.681	596.4
624.095	602.4
624.509	604.2
624.922	611.6
625.336	591
625.728	598.8
626.142	603
626.556	609.2
626.97	615.4
627.384	586.8
627.799	594.8
628.213	611.2
628.627	598.2
629.041	594.4
629.456	593.2
629.87	598.2
630.285	608.8
630.699	600
631.093	593.8
631.507	602.2
631.922	604.2
632.337	610.6
632.752	586.8
633.167	602.6
633.582	601.4
633.997	590.4
634.412	597.8
634.806	599.2
635.221	588.6
635.637	603.4
636.052	587.8
636.468	599.8
636.883	614.4
637.299	588.2
637.715	581.6
638.109	594
638.525	590
638.941	607.8
639.357	597.4
639.773	605.6
640.189	588
640.584	590.8
641	601
641.416	588.2
641.832	596.2
642.249	577.4
642.665	600.4
643.06	599.6
643.477	594.8
643.894	576.8
644.31	593
644.727	594.2
645.123	591.2
645.54	579.8
645.957	587.4
646.374	609
646.77	595.8
647.187	626.2
647.604	593.6
648.021	583.8
648.439	587.4
648.835	594.6
649.252	592.2
649.67	591.8
650.088	591.8
650.484	599
650.902	602.4
651.32	598.6
651.738	590
652.134	601
652.552	613.2
652.971	604.6
653.389	597.4
653.786	603.8
654.204	613.4
654.622	589
655.019	592.2
655.438	601.2
655.857	595.4
656.275	596.4
656.673	589.4
657.091	604
657.51	587.8
657.908	602.6
658.327	609.8
658.746	591.4
659.144	588.6
659.563	606
659.982	597
660.38	581.8
660.8	599
661.219	601.4
661.617	590.6
662.037	585.6
662.457	602.6
662.855	576.8
663.275	624.4
663.695	599.6
664.094	582.6
664.514	599.4
664.934	582.4
665.333	597
665.753	589.6
666.152	580.8
666.572	581.8
666.993	601.2
667.392	588
667.812	586.2
668.212	590.2
668.632	600.4
669.053	591.6
669.453	592.2
669.874	592.2
670.273	594
670.694	586.6
671.116	600.2
671.515	599.6
671.937	590.6
672.337	585.2
672.758	587.4
673.158	595
673.58	582.4
673.98	591.8
674.402	601.2
674.824	587
675.224	589.2
675.646	585.2
676.047	583.8
676.469	586
676.869	591.4
677.292	589.6
677.693	584.8
678.115	582
678.516	596.4
678.939	589
679.34	590.2
679.762	590.6
680.164	594.8
680.586	574.4
680.988	584.4
681.411	614.2
681.812	587.4
682.236	585
682.637	584.6
683.061	580
683.462	581.8
683.864	591.4
684.288	595.2
684.69	579
685.114	595.2
685.516	595.8
685.94	575.6
686.342	596.6
686.766	583.4
687.168	583.8
687.571	601.8
687.995	592
688.398	582.8
688.822	589.4
689.225	603.4
689.628	610.2
690.052	587.6
690.456	591.4
690.88	594.4
691.284	576.4
691.687	598.6
692.112	585.4
692.515	569.4
692.919	589.2
693.344	591
693.747	591.4
694.173	585.2
694.577	606.8
694.98	591
695.406	585.4
695.81	583.2
696.214	596
696.64	591
697.044	593.6
697.448	604
697.874	583.4
698.279	589.8
698.684	586.6
699.11	584.6
699.514	583.8
699.919	587.2
700.324	577
700.75	589.2
701.156	584.8
701.561	601.8
701.987	596.6
702.393	601.2
702.798	596.2
703.203	587.6
703.63	576.4
704.036	583.6
704.442	594.2
704.847	585
705.274	584.8
705.68	595.4
706.086	600.6
706.492	578.2
706.92	583.4
707.326	600.4
707.732	578.2
708.139	577.8
708.545	575.4
708.973	583
709.38	583.2
709.786	575.8
710.193	594.8
710.6	587
711.028	583
711.435	592
711.842	591.2
712.249	575.6
712.656	586.8
713.064	596.4
713.492	576.8
713.9	584.4
714.307	585
714.715	591.6
715.123	589
715.53	586
715.938	598.6
716.367	593.6
716.775	584
717.184	590.2
717.592	578.8
718	599.6
718.408	616.8
718.816	643.6
719.225	598.4
719.633	582.8
720.042	579.4
720.472	587.4
720.881	606.6
721.29	592.6
721.699	579
722.108	595
722.517	591.2
722.926	577.2
723.335	590
723.744	581.8
724.154	584
724.563	601.8
724.973	588.6
725.382	577.8
725.792	584.8
726.202	581.4
726.612	615.2
727.022	587.6
727.432	582.6
779.813	584.6
780.223	627.8
780.634	585.8
781.044	587.6
781.454	589
781.865	602.8
782.276	582.6
782.686	591.8
783.097	588.4
783.508	593.6
783.919	586
784.33	596.2
784.741	591.4
785.152	576.4
785.563	566
785.974	579.4
786.386	596.4
786.776	574.4
787.188	583.2
787.599	573.4
788.011	593.4
788.423	587.8
788.835	582.6
789.247	579
789.659	578.4
790.071	577.4
790.483	627.8
790.874	583.2
791.286	589.2
791.699	583.2
792.111	582.2
792.524	583
792.937	579.2
793.349	578.6
793.741	567.8
794.154	579.2
794.567	607.4
794.98	580.2
795.393	568.4
795.785	603
796.198	583.4
796.612	586
797.026	576.6
797.439	565.8
797.831	580
798.245	570
798.659	578.4
799.073	575.6
799.487	573
799.88	581.4
800.294	581.8
800.708	587.8
801.123	586.6
801.516	601.6
801.93	573.2
802.345	567.2
802.76	577
803.153	604
803.568	600.8
803.983	593.2
804.377	582.6
804.792	576.4
805.207	568.4
805.601	582.2
806.016	623.2
806.432	578.4
806.826	613
807.242	600.6
807.658	588.4
808.052	578.2
808.468	587.6
808.884	582.6
809.279	591
809.695	600
810.111	601.6
810.506	591.8
810.922	599.2
811.339	589.2
811.734	586
812.151	582.6
812.546	580.6
812.963	580
813.38	593.8
813.776	587.2
814.193	605.6
814.589	584.8
815.006	576
815.402	576.8
815.82	575.2
816.237	588.2
816.633	598
817.051	576
817.448	583.2
817.866	579.6
818.262	601
818.68	576.6
819.077	591.6
819.495	589
819.892	617
820.311	574
820.708	584.2
821.127	579.4
821.524	591.2
821.943	595.6
822.34	597.8
822.759	590.4
823.157	578.6
823.576	601.4
823.974	600.2
824.393	631.4
824.791	583.6
825.189	570
825.609	577.4
826.007	582.6
826.427	570.4
826.826	574.6
827.246	584.4
827.644	574.6
828.043	587.6
828.463	573.4
828.862	592.8
829.261	598.2
829.682	579
830.081	587.8
830.502	572.2
830.901	586.4
831.301	601.4
831.722	571.6
832.121	583.2
832.521	570.2
832.943	587
833.342	579.8
833.742	572.8
834.164	581.2
834.564	568.4
834.965	586.4
835.386	578.6
835.787	580
836.188	581.2
836.588	589.6
837.01	582.2
837.411	576.6
837.812	589.4
838.213	590.2
838.636	582.4
839.037	644.4
839.438	583.6
839.84	589.4
840.263	586.2
840.664	578.4
841.066	580.8
841.468	579.6
841.891	582.4
842.293	589.4
842.695	586.8
843.098	593.8
843.5	576
843.902	584.4
844.326	578
844.729	590
845.131	599.8
845.534	583.2
845.937	599.8
846.34	596.4
846.764	582.2
847.167	587.4
847.571	575.4
847.974	588.2
848.377	579.8
848.781	627.8
849.184	601.8
849.588	580.4
849.992	576.6
850.396	588.4
850.821	607
851.225	585
851.63	580.6
852.034	591.8
852.438	587.2
852.843	611.4
853.247	583.6
853.652	585.2
854.057	595.4
854.462	588.4
854.867	585.2
855.272	612.8
855.677	589.8
856.082	574.6
856.487	570.8
856.893	586.6
857.298	576.6
857.704	581.4
858.11	584.2
858.516	587.2
858.922	579.8
859.328	586.4
859.734	586.2
860.14	595.8
860.525	592.6
860.931	568
861.338	574.4
861.745	580.2
862.151	590
862.558	581.2
862.965	572.8
863.372	577.4
863.779	576
864.186	601.2
864.572	585.8
864.98	596.8
865.387	618.6
865.795	581.8
866.203	591
866.61	574
867.018	590
867.405	589.4
867.813	581
868.221	587.2
868.63	579.6
869.038	589.2
869.425	623.4
869.834	590.6
870.243	574.2
870.652	572
871.039	579.4
871.448	584.8
871.857	590.4
872.266	586.6
872.654	585.6
873.064	584
873.473	589.4
873.883	580.6
874.271	580
874.681	597
875.091	567
875.48	598
875.89	600.6
876.3	574
876.689	568.4
877.1	580.8
877.51	573
877.9	604.8
878.31	568.4
878.721	612.6
879.111	579
879.522	579.2
879.933	576
880.323	563
880.734	574.8
881.125	585.2
881.536	576.2
881.948	569.8
882.338	587
882.75	586
883.141	576.4
883.553	580.4
883.944	605.4
884.356	592.2
884.769	577.2
885.16	579
885.573	573.6
885.964	566.2
886.377	578
886.768	570
887.181	576.4
887.573	571.2
887.987	580
888.378	593.6
888.792	579.6
889.184	624.2
889.598	573.2
889.99	577
890.383	578.6
890.797	570.2
891.19	595.2
891.604	570.8
891.997	572.2
892.411	578.2
892.805	581.8
893.198	576
893.613	572.6
894.006	574
894.421	574.6
894.815	578.2
895.209	580
895.624	617.8
896.018	594.8
896.412	579
896.828	579.4
897.222	579.6
897.617	585
898.033	598.4
898.427	583.4
898.822	584.6
899.239	576.2
899.634	573.6
900.029	589.8
900.424	571.8
900.841	577.6
901.236	590.2
901.632	591.8
902.027	639
902.445	591.4
902.841	586.8
903.237	575.4
903.633	589.8
904.05	597
904.447	582.4
904.843	594.8
905.24	583.4
905.636	569.4
906.033	583.8
906.451	595
906.848	575
907.246	573.4
907.643	576.2
908.04	585.8
908.438	593.8
908.835	586
909.254	581
909.652	575.4
910.05	577.4
910.448	578.8
910.846	580.6
911.244	570.8
911.643	590.6
912.041	571.4
912.44	587
912.839	575.8
913.237	577
913.636	574.4
914.035	588.2
914.434	574
914.834	588.6
915.233	586.2
915.633	581.2
916.032	575.8
916.432	578.2
916.832	592
917.232	569.8
917.632	566.8
918.032	579.2
918.432	570.8
918.833	571.4
919.233	578.4
919.634	567.2
920.035	582.4
920.436	568.4
920.837	586.4
921.238	569.2
921.639	573.6
922.019	575
922.42	580.6
922.822	583.2
923.224	572.4
923.625	574.2
924.027	586
924.429	596.8
924.81	579.8
925.212	577
925.615	570.6
926.017	572
926.42	590.6
926.801	581.6
927.204	574
927.607	589
928.01	593.8
928.413	580
928.795	563.6
929.199	580.2
929.602	572.2
930.006	577.2
930.388	572
930.792	580.6
931.196	577.8
931.579	611.8
931.983	568
932.388	616.8
932.771	572
933.176	562
933.58	581.8
933.964	586.6
934.369	567.2
934.774	582.6
935.158	575.8
935.563	587.4
935.947	574
936.353	586
936.759	580.8
937.143	586.2
937.549	590.6
937.934	593.6
938.34	604
938.746	572.4
939.131	576.2
939.538	573.6
939.923	582.4
940.33	580
940.716	584
941.123	593
941.508	587.2
941.916	593
942.302	586.8
942.709	567.8
943.096	578.8
943.503	586.4
943.89	585.8
944.298	570.6
944.685	610.6
945.072	569.8
945.48	580.4
945.867	568.2
946.276	578.2
946.663	595.2
947.051	597.6
947.46	581.6
947.848	575.2
948.257	583.6
948.645	574.8
949.033	577.6
949.443	575.8
949.831	618.2
950.22	566.6
950.63	585.2
951.018	605.2
951.407	575
951.796	573.8
952.207	591.4
952.596	577.2
952.985	568.8
953.375	626
953.786	570
954.176	568.8
954.566	585.2
954.956	569.2
955.367	573.6
955.758	600.2
956.148	579.2
956.539	583.8
956.929	574.2
957.341	567.2
957.732	568.8
958.123	591.4
958.515	563.6
958.906	587.8
959.297	579.6
959.689	585.2
960.102	572.8
960.494	589
960.886	578.2
961.278	576.4
961.67	597.6
962.062	619.6
962.455	574.8
962.847	570.4
963.24	587
963.633	575.8
964.026	565.8
964.419	584.6
964.812	581.4
965.206	584.2
965.599	585.4
965.993	587
966.386	573.2
966.78	590.8
967.174	585.8
967.569	581
967.963	582.6
968.357	578.6
968.752	572.8
969.146	573.6
969.541	572.6
969.936	575.8
970.331	574.8
970.705	580
971.1	571.4
971.496	583.4
971.892	573.6
972.287	567.6
972.683	574.6
973.079	570.4
973.454	589.8
973.85	577.2
974.247	576.4
974.643	593.8
975.04	577.4
975.415	580.4
975.812	564.6
976.209	577.2
976.607	569.6
976.982	593.6
977.38	593.4
977.778	570.8
978.175	568
978.552	575.6
978.95	570.4
979.348	577.8
979.725	626.4
980.123	575
980.522	576.2
980.899	572.8
981.298	572.6
981.697	581.6
982.075	574.4
982.474	571.6
982.852	583
983.251	571.6
983.651	569
984.029	581.4
984.429	572.6
984.808	563.2
985.208	572.8
985.609	562.4
985.987	565.4
986.388	573
986.768	587.2
987.168	569.8
987.548	584
987.949	580.4
988.329	583.8
988.731	556.2
989.111	578.6
989.491	578.2
989.893	577.4
990.273	590.4
990.676	567.8
991.057	562.4
991.459	579.2
991.84	581.2
992.221	569
992.624	600.2
993.006	576
993.388	580
993.791	576.6
994.173	585.4
994.576	608.8
994.959	569.8
995.341	578
995.724	572
996.128	566.6
996.511	574.6
996.894	570.8
997.298	578.6
997.681	581.6
998.065	579.2
998.448	581.4
998.854	578.8
999.237	568.6
999.621	584.4
1000.01	584.8
1000.39	574.6
1000.8	570
1001.18	581.4
1001.56	581.4
1001.95	586.4
1002.33	580.4
1002.72	585.8
1003.13	574.8
1003.51	569.4
1003.9	570.8
1004.28	593
1004.67	575.2
1005.06	577.4
1005.44	610.6
1005.83	563
1006.21	573
1006.6	567.6
1006.99	576.6
1007.37	585.2
1007.76	574.6
1060.12	575.6
1060.51	565.6
1060.89	589.4
1061.28	580.2
1061.67	585.8
1062.06	579.8
1062.45	571
1062.83	570.2
1063.22	581.4
1063.61	614.6
1064	583.2
1064.39	580.8
1064.78	571
1065.14	587.8
1065.53	581.4
1065.92	574.8
1066.31	563.4
1066.7	587.4
1067.09	584.4
1067.46	580.4
1067.85	573
1068.24	569
1068.63	578.4
1069.02	572.8
1069.39	587.2
1069.78	567
1070.17	576.6
1070.57	562.8
1070.93	571.2
1071.33	563
1071.72	575.8
1072.11	570.6
1072.48	563.4
1072.87	580.6
1073.26	574.2
1073.64	568.4
1074.03	563.2
1074.4	569.8
1074.79	566.6
1075.19	576.2
1075.56	574
1075.95	576.8
1076.34	574.2
1076.72	576.2
1077.11	578.6
1077.48	588.2
1077.88	579.6
1078.25	568.2
1078.64	581.4
1079.02	580.8
1079.41	591.2
1079.78	573.8
1080.18	572.6
1080.55	648.8
1080.95	564.6
1081.32	573.2
1081.72	576.2
1082.09	578
1082.49	571.6
1082.86	575.6
1083.24	563.2
1083.63	570.6
1084.01	572
1084.38	584.8
1084.78	571
1085.16	582.2
1085.55	591.4
1085.93	584.4
1086.31	568.2
1086.7	600.4
1087.08	580.4
1087.46	578.6
1087.83	571.8
1088.23	586.2
1088.61	570.2
1088.99	576.4
1089.36	570.4
1089.76	568.4
1090.14	569.8
1090.52	571.4
1090.9	570
1091.27	578.4
1091.67	599.6
1092.05	589.8
1092.43	572.2
1092.81	579.4
1093.19	583.6
1093.57	567
1093.95	575.2
1094.35	577.4
1094.73	586.8
1095.11	562.8
1095.49	566.6
1095.87	576.4
1096.25	584.8
1096.63	574.4
1097.01	576
1097.39	576.2
1097.77	577.2
1098.15	581.8
1098.53	571.2
1098.91	576
1099.29	570.6
1099.68	592.8
1100.06	582.6
1100.44	585.2
1100.82	576.6
1101.18	579
1101.56	575.8
1101.95	574.4
1102.33	574.2
1102.71	574.8
1103.1	565.8
1103.48	573
1103.86	567.6
1104.22	573.6
1104.61	573.4
1104.99	574.2
1105.38	570.8
1105.76	577.2
1106.12	575.6
1106.51	608.4
1106.89	590.2
1107.26	577
1107.64	576.4
1108.03	570.4
1108.41	571.2
1108.78	579.6
1109.16	572.4
1109.55	585
1109.91	562.2
1110.3	563.6
1110.69	588
1111.05	567.6
1111.44	580.6
1111.8	582.8
1112.19	582.4
1112.58	576.4
1112.94	577.6
1113.33	573.8
1113.7	569.6
1114.09	567.2
1114.45	566.6
1114.84	577.8
1115.21	578.6
1115.6	565.2
1115.96	576.6
1116.35	574.4
1116.72	573.8
1117.11	589
1117.48	579.8
1117.85	568.6
1118.24	583.6
1118.6	569.4
1118.99	559
1119.36	571.8
1119.73	574.2
1120.12	573.4
1120.49	567.2
1120.86	575.6
1121.25	570.8
1121.62	564.2
1121.99	570
1122.38	585.2
1122.76	568.4
1123.13	561.2
1123.5	578.2
1123.89	580
1124.26	571.4
1124.63	576.4
1125	575.2
1125.4	552.8
1125.77	568.4
1126.14	556.2
1126.51	566.2
1126.88	577.6
1127.26	562.8
1127.63	553.4
1128.02	572.6
1128.4	565.6
1128.77	568.4
1129.14	579.2
1129.52	577.6
1129.89	573.6
1130.26	561.4
1130.64	564.6
1131.01	574.4
