#lambda/nm	C1
208.295	508.6
208.67	468.8
209.045	421.8
209.419	429
209.794	609.2
210.169	603.4
210.544	719
210.919	614.8
211.295	604.8
211.67	620.2
212.045	609.6
212.421	608.4
212.796	655.8
213.172	610.4
213.547	621.2
213.923	608
214.299	612
214.675	626
215.051	620.4
215.427	619.4
215.803	632.8
216.179	625.6
216.555	612.2
216.932	614.4
217.308	610.8
217.684	617.4
218.061	625
218.438	613.6
218.814	602.6
219.191	619
219.568	599.8
219.945	610
220.322	615.6
220.699	616.8
221.076	619
221.453	618
221.83	607.4
222.208	619
222.585	608.6
222.962	612.6
223.34	624.6
223.717	612.8
224.095	614
224.473	616
224.851	609.4
225.229	609.2
225.607	636
225.985	604.6
226.363	623.8
226.741	624
227.119	615.2
227.497	631.4
227.876	603.2
228.254	627
228.633	623.2
229.011	619.2
229.39	621.6
229.769	619
230.148	624.8
230.527	634
230.905	617.6
231.284	620
231.664	614.6
232.043	629.4
232.422	617.6
232.801	611.6
233.181	623.4
233.56	607.8
233.94	622
234.319	605.8
234.699	618
235.079	651.2
235.458	649.4
235.838	630.8
236.218	611.6
236.598	603.8
236.978	603.6
237.358	615.6
237.738	609
238.119	620.4
238.499	612
238.88	618.2
239.26	625.6
239.641	608.8
240.021	620.6
240.402	614.4
240.783	608
241.163	610.4
241.544	620.4
241.925	609.2
242.306	635.6
242.687	623.2
243.069	627.4
243.45	618
243.831	605.8
244.212	618
244.594	650
244.975	621.4
245.357	617.2
245.739	610
246.12	618.8
246.502	631.2
246.884	611
247.266	619.8
247.648	612
248.03	631.6
248.412	618.4
248.794	626.4
249.176	606.8
249.559	613.8
249.941	608.8
250.323	612
250.706	609.8
251.089	617
251.471	617.6
251.854	617.4
252.237	614.6
252.62	619.8
253.002	614.8
253.385	612.2
253.769	621
254.152	617.6
254.535	621
254.918	607.4
255.301	616.2
255.685	612.8
256.068	607.2
256.452	645.2
256.835	621.4
257.219	620.6
257.603	629.2
257.986	604.4
258.37	625.2
258.754	605
259.138	615.2
259.522	629.4
259.906	617
260.29	617.4
260.675	609.6
261.059	619.6
261.443	596.8
261.828	615.2
262.212	610.4
262.597	603.8
262.981	613.4
263.366	626.8
263.751	612
264.136	610.4
264.521	603.6
264.906	597.2
265.291	618.4
265.676	605.4
266.061	618.6
266.446	633
266.831	604.6
267.217	631.2
267.602	615.6
267.987	619.4
268.373	607.2
268.759	625.6
269.144	625.8
269.53	612.6
269.916	604.8
270.302	613.2
270.688	617.6
271.074	617.6
271.46	624.6
271.846	645.6
272.232	621.2
272.618	600.6
273.004	611.4
273.391	617.4
273.777	630
274.164	618.2
274.55	629.2
274.937	612.8
275.324	600.8
275.71	620.8
276.097	625.6
276.484	610.8
276.871	610.6
277.258	618.8
277.645	601
278.032	618.8
278.419	609.8
278.807	623.6
279.194	611.8
279.581	610.4
279.969	616.8
280.356	616.8
280.744	624.8
281.131	644.6
281.519	631.2
281.907	607.6
282.295	612
282.682	628
283.07	622.8
283.458	623.2
283.846	620.8
284.235	628.6
284.623	630
285.011	611.2
285.399	617.2
285.788	617.6
286.176	597.2
286.565	626.6
286.953	617
287.342	608.6
287.731	611
288.119	604.8
288.508	618.4
288.897	619.8
289.286	598.4
289.675	613.8
290.064	628.4
290.453	610
290.821	618.4
291.21	627.2
291.599	618
291.989	629.2
292.378	631.4
292.768	636
293.157	628
293.547	631.4
293.936	619
294.326	610.2
294.716	620
295.106	609.4
295.496	627.6
295.886	630.8
296.276	610.6
296.666	609.8
297.056	615.4
297.446	606.8
297.836	635.6
298.227	612.4
298.617	622.2
299.008	631.6
299.398	614.4
299.789	614.4
300.179	620.8
300.57	629.4
300.961	620.8
301.352	618.6
301.742	628.4
302.133	626.2
302.524	619.2
302.915	627.6
303.307	616
303.698	631.4
304.089	620.2
304.48	619.6
304.872	613.4
305.263	613.2
305.655	603
306.046	628.8
306.438	622.2
306.829	607
307.221	631.8
307.613	622
308.005	629
308.397	635.8
308.789	637
309.181	645.6
309.573	634
309.965	628.2
310.357	616.6
310.749	637.2
311.142	618.6
311.534	610.4
311.926	620
312.319	622.6
312.711	611.6
313.104	624.8
313.497	606.8
313.889	654.4
314.282	626.2
314.675	642.8
315.068	613.8
315.461	626.2
315.854	650.6
316.247	625.4
316.64	618.8
317.033	620.8
317.405	627.8
317.798	617.4
318.192	619
318.585	617.6
318.979	617.2
319.372	615.6
319.766	613.6
320.16	626.2
320.553	632
320.947	639.2
321.341	617
321.735	610.8
322.129	606.2
322.523	640.4
322.917	606.8
323.311	624.6
323.705	622.6
324.099	625.8
324.494	631.8
324.888	634.2
325.282	622
325.677	623.2
326.071	624
326.466	636.4
326.861	619
327.255	638
327.65	631.8
328.045	635.8
328.44	616.2
328.835	622
329.23	613.8
329.625	644.4
330.02	613.8
330.415	642.6
330.81	618
331.206	622.6
331.601	614.4
331.996	623.6
332.37	638.6
332.766	607.6
333.161	641.8
333.557	616.4
333.953	619.6
334.348	945.6
334.744	619.8
335.14	618
335.536	610
335.932	630.6
336.328	615.2
336.724	624.4
337.12	616.8
337.516	625.6
337.913	620.2
338.309	634.6
338.705	619.2
339.102	637.2
339.498	626.4
339.895	636.8
340.291	612.4
340.688	628
341.085	611
341.481	613.6
341.878	614
342.275	638.8
342.672	615.8
343.069	607
343.466	606.2
343.842	630.2
344.239	615.6
344.636	616.6
345.033	611.6
345.431	612.8
345.828	617.6
346.225	616.8
346.623	647.4
347.02	617.4
347.418	625.2
347.816	628
348.213	611
348.611	625.6
349.009	612.2
349.407	626.2
349.805	599.4
350.203	599
350.601	629.8
350.999	614.6
351.397	661
351.795	615.6
352.193	618.4
352.57	617.8
352.969	629.6
353.367	606.8
353.766	612.6
354.164	615
354.563	623
354.961	617
355.36	621
355.759	615
356.158	606.4
356.557	608
356.956	601.2
357.355	603.6
357.754	615.2
358.153	615.6
358.552	636.2
358.951	605.4
359.35	622.6
359.75	609
360.149	597.4
360.527	600.2
360.926	592.2
361.326	620.8
361.726	593.4
362.125	600.8
362.525	608.4
362.925	605.4
363.325	600.8
363.724	609.4
364.124	609.8
364.524	598.8
364.924	601
365.324	612.4
365.725	592.8
366.125	612.6
366.525	609.4
366.904	601.4
367.304	590.8
367.705	621.8
368.105	621.4
368.506	604.8
368.906	610
369.307	614.8
369.708	606.4
370.108	598.4
370.509	621.4
370.91	604.8
371.311	607.2
371.712	611.2
372.113	614.4
372.514	596.2
372.894	601.4
373.295	602.6
373.696	619.6
374.097	619.6
374.499	633
374.9	610.2
375.301	599.4
375.703	602.4
376.105	598.2
376.506	616.6
376.908	619.4
377.309	607.6
377.711	616.8
378.113	610.6
378.493	607.8
378.895	609.2
379.297	617.4
379.699	596
380.102	617.4
380.504	619.2
380.906	592.4
381.308	634.6
381.71	604
382.113	612.4
382.515	596.2
382.918	609
383.299	617.4
383.701	621.2
384.104	615.2
384.507	591.8
384.909	609.2
385.312	597.2
385.715	599
386.118	607.4
386.521	594.8
386.924	617.2
387.327	604.2
387.709	598
388.112	597.4
388.515	612
388.918	599.4
389.322	612
389.725	595
390.129	637.6
390.532	621.4
390.936	606.6
391.339	605
391.743	613
392.125	608
392.529	616.8
392.933	626.4
393.337	611.2
393.74	606
394.144	612.8
394.548	608
394.953	613.6
395.357	615.6
395.761	610.8
396.144	612.6
396.548	611.4
396.952	605.2
397.357	597.6
397.761	603.6
398.166	605.4
398.57	606.6
398.975	602
399.379	607.2
399.763	652.8
400.168	599.8
400.572	608.2
400.977	601.2
401.382	624.6
401.787	610.4
402.192	624.2
402.597	619.8
403.002	591.6
403.386	617.8
403.791	627.2
404.197	599.8
404.602	610.4
405.007	603.6
405.413	602.4
405.818	606
406.224	597
406.608	604.6
407.014	600
407.42	626.4
407.825	606.8
408.231	620
408.637	609.8
409.043	613.2
409.449	604
409.834	602.2
410.24	607.6
410.646	622
411.052	617.4
411.458	610.2
411.865	620.2
412.271	622.4
412.677	610.2
413.062	614
413.469	595.8
413.875	625.8
414.282	612.8
414.689	614.6
415.095	615.6
415.502	598.2
415.888	611
416.294	592.8
416.701	647.4
417.108	602
417.515	616
417.923	610.4
418.33	628
418.715	620.6
419.123	604.8
419.53	594.4
419.937	604.8
420.345	630.4
420.752	606.4
421.16	622.6
421.546	605.4
421.953	613.2
422.361	603.8
422.769	611.4
423.177	606
423.585	629.4
423.992	626.6
424.379	616.2
424.787	626.4
425.195	635.4
425.603	616
426.011	625.6
426.419	625.2
426.806	614
427.214	617.2
427.623	631.8
428.031	623.6
428.44	620
428.848	632.4
429.235	632.8
429.644	615.2
430.053	612.8
430.461	632
430.87	642.4
431.279	614.8
431.666	612.2
432.075	615.6
432.484	623
432.893	607
433.302	638.2
433.711	656.6
434.099	621.8
434.508	612.6
434.918	611
435.327	625.4
435.737	617.6
436.125	622.2
436.534	625.8
436.944	631.8
437.353	632.4
437.763	653
438.173	629.6
438.561	653.4
438.971	624.8
439.381	649
439.791	647
440.201	632
440.589	650.2
440.999	663.2
441.409	659.2
441.819	651.6
442.23	671.8
442.619	670.6
443.029	662.4
443.439	683.6
443.85	687.4
444.26	687.2
444.649	691.4
445.06	685.6
445.471	677.8
445.881	691.6
446.292	709.6
446.682	712
447.092	682
447.503	750.4
447.914	707.8
448.325	707.8
448.715	700.4
449.126	704.8
449.537	707
449.948	708
450.338	714.2
450.75	721.8
451.161	717.2
451.572	729.6
451.984	709.2
452.374	701.8
452.786	718.2
453.197	721.8
453.609	736.8
453.999	705.6
454.411	709.2
454.823	731
455.235	721.6
455.647	726.8
456.037	731
456.449	707.2
456.862	727.4
457.274	729.8
457.665	712.2
458.077	726.6
458.489	749.8
458.902	732.8
459.293	726.4
459.705	727
460.118	726
460.53	732.8
460.921	735.4
461.334	740
461.747	725.2
462.16	746.6
462.551	747.2
462.964	754.4
463.377	723.2
463.79	738.8
464.182	755.8
464.595	732
465.008	751.8
465.421	749.6
465.813	742.6
466.226	749.8
466.64	738.8
467.053	791
467.445	759.6
467.859	766.8
468.272	755.2
468.686	762.8
469.078	747
469.492	738.2
469.906	765.6
470.298	757
470.712	745.8
471.126	803.6
471.54	743.6
471.933	744.8
472.347	747.8
472.761	749.4
473.175	744.2
473.568	754.6
473.982	745.8
474.397	750.6
474.79	754.2
475.204	760.2
475.619	755.2
476.033	755.6
476.426	754
476.841	757.8
477.256	773
477.649	749
478.064	745.6
478.479	754.2
478.872	746.8
479.287	740.2
479.702	747.6
480.118	752.8
480.511	745.6
480.927	753.8
481.342	740.2
481.736	749.4
482.151	739
482.566	760.2
482.96	745.4
483.376	758.6
483.792	736.6
484.186	747
484.602	744.4
485.017	753
485.412	745.8
485.827	751.4
486.243	740
486.638	772.4
487.054	756.6
487.47	769.2
487.865	745
488.281	751.2
488.697	748.8
489.092	744.2
489.508	733.2
489.925	748.6
490.32	735.4
490.736	734.4
491.153	729.6
491.548	744.2
491.964	743
492.381	722.8
492.776	741.8
493.193	734
493.61	731.4
494.006	718.2
494.422	732.8
494.84	721.8
495.235	739.2
495.652	732.4
496.069	731
496.465	712.2
496.883	724.8
497.3	746.6
497.696	713.2
498.113	733.4
498.509	706.8
498.927	706.2
499.344	712
499.741	716.6
500.158	730.6
500.576	722.2
500.973	727.2
501.39	702.6
501.787	704.6
502.205	718.2
502.623	702.2
503.02	693.4
503.438	707.4
503.856	712
504.253	702.6
504.671	702
505.068	705
505.486	703.6
505.905	711.8
506.302	706.4
506.72	715
507.118	700
507.536	704.2
507.955	705.6
508.352	708.2
508.771	703.8
509.169	702.8
509.587	687.8
510.006	694.8
510.404	680.8
510.823	687.6
511.221	683.4
511.64	684.4
512.038	707.4
512.457	692.4
512.877	681.4
513.275	685.8
513.694	687
514.092	684.4
514.512	687.4
514.91	690.8
515.33	689.6
515.749	680.4
516.148	680.8
516.568	682.2
516.966	687
517.386	683
517.785	687.4
518.205	670.2
518.603	663.4
519.024	671.2
519.444	676.2
519.843	677.8
520.263	686.6
520.662	676.6
521.082	669.4
521.481	681.4
521.902	667.2
522.301	671.4
522.722	664.8
523.121	665.6
523.542	671.4
523.963	667.4
524.362	671.8
524.783	673.4
525.183	667.6
525.604	663.8
526.003	659
526.425	657.8
526.824	674.4
527.246	670.8
527.646	675.2
528.067	660.6
528.467	660
528.888	666.2
529.289	651.8
529.71	662.4
530.11	660.8
530.532	652
530.932	653.8
531.354	648.4
531.755	682.4
532.176	667.6
532.577	656.4
532.999	659.6
533.4	646.4
533.822	655.8
534.223	657.4
534.645	654.2
535.046	651.6
535.468	648
535.869	665.2
536.292	641.8
536.693	675.4
537.115	652.2
537.516	646.8
537.939	637.2
538.34	665.6
538.742	657.2
539.165	655
539.566	640.4
539.989	633.4
540.391	646.6
540.814	641.4
541.216	648
541.639	647.8
542.041	653.8
542.464	644
542.866	643.2
543.268	638.6
543.691	640
544.093	650.4
544.517	657.2
544.919	643.2
545.343	663.6
545.745	645.6
546.147	642
546.571	640
546.974	626.8
547.398	642.2
547.8	655.4
548.224	636
548.627	633.8
549.03	639.2
549.454	632.4
549.857	627
550.281	633.2
550.684	624
551.087	646.6
551.512	632
551.915	636.2
552.34	638.6
552.743	617.8
553.146	624.2
553.571	629
553.975	649.4
554.399	619.2
554.803	673.2
555.207	624.6
555.632	605.6
556.036	626.4
556.461	611.2
556.865	637.4
557.268	618.2
557.694	617.2
558.098	627.8
558.502	633.4
558.927	618
559.332	623.6
559.736	621
560.162	629.4
560.566	625.8
560.992	623.4
561.396	626.8
561.801	614
562.227	620.6
562.631	621.2
563.036	617.4
563.462	623
563.867	616.8
564.272	607.8
564.698	627.6
565.103	612
565.508	645.6
565.935	624.6
566.34	610
566.745	623.4
567.172	620.4
567.577	637.8
567.982	633.8
568.409	620.8
568.815	613.2
569.22	623.2
569.626	624
570.053	602.8
570.459	613.2
570.865	631
571.292	626.2
571.698	621.6
572.104	603
572.531	612.6
572.937	626.2
573.343	623.8
573.75	609.6
574.177	620.6
574.583	616.8
574.99	618.2
575.396	617.4
575.824	616.4
576.231	620.4
576.637	607
577.065	640.2
577.472	616.8
577.879	622
578.286	627
578.714	607.6
579.121	613
579.528	619.2
579.935	617.8
580.364	609.4
580.771	604.2
581.178	598.6
581.585	612.8
582.014	610.4
582.421	609
582.829	603.4
583.236	626
583.644	605.2
584.073	608.6
584.481	618.6
584.889	610.8
585.296	609.2
585.726	615
586.134	600
586.542	608.8
586.95	626.6
587.358	597.4
587.787	613
588.196	618.6
588.604	605.8
589.012	612.8
589.421	602.6
589.851	601.8
590.259	616.6
590.668	599.6
591.076	641.4
591.485	598.2
591.894	606
592.324	615.4
592.733	615
593.142	591.2
593.551	604.6
593.96	610
594.369	593.2
594.8	599.2
595.209	608.2
595.618	580.2
596.028	594.6
596.437	582.2
596.847	601.4
597.256	606
597.687	594.8
598.097	595.4
598.507	593.4
598.917	599.2
599.327	614
599.736	603.8
600.146	613.4
600.556	598.6
600.988	617.2
601.398	595.6
601.808	611.6
602.219	591.2
602.629	597.2
603.039	596.2
603.45	637.8
603.86	596.4
604.271	611.8
604.703	604.8
605.114	597.8
605.525	600.6
605.935	602
606.346	620.2
606.757	609.8
607.168	590
607.579	593.2
607.99	615.4
608.402	593.8
608.813	600.8
609.224	597.6
609.636	595.2
610.047	597.8
610.48	605.2
610.892	606.4
611.303	602.6
611.715	602.6
612.127	592.8
612.539	602.4
612.95	599.4
613.362	584.8
613.774	586.6
614.186	586.4
614.599	590.4
615.011	603.2
615.423	591.4
615.835	598.8
616.248	598.6
616.66	608.6
617.073	592.4
617.485	592.4
617.898	598.2
618.311	598.4
618.723	600
619.136	619.8
619.549	620.2
619.962	623.2
620.375	595
620.788	599.6
621.201	600
621.614	611.8
622.028	600.8
622.441	605.6
622.854	614.6
623.268	593
623.681	598.6
624.095	598.4
624.509	610
624.922	605.8
625.336	581.4
625.728	600.2
626.142	609.2
626.556	615.2
626.97	600
627.384	592.8
627.799	598.8
628.213	613.8
628.627	598.6
629.041	592.2
629.456	604.4
629.87	591.6
630.285	606.8
630.699	598.8
631.093	600.8
631.507	605
631.922	598
632.337	612
632.752	584.2
633.167	595.4
633.582	591.4
633.997	588.4
634.412	584.8
634.806	589.2
635.221	587.2
635.637	595.8
636.052	589.2
636.468	598.8
636.883	615.6
637.299	595.6
637.715	574.6
638.109	592
638.525	591
638.941	608.8
639.357	597.2
639.773	605.2
640.189	589
640.584	597.2
641	604.2
641.416	576.6
641.832	589.6
642.249	586.2
642.665	590.8
643.06	599
643.477	605
643.894	577.6
644.31	595.2
644.727	587.8
645.123	597.8
645.54	586.4
645.957	589.2
646.374	612
646.77	592.2
647.187	624
647.604	582.6
648.021	576.8
648.439	591.2
648.835	587.4
649.252	587.6
649.67	583.2
650.088	589.2
650.484	589.2
650.902	601.2
651.32	592.6
651.738	590.8
652.134	594.4
652.552	612.6
652.971	604.8
653.389	581.6
653.786	601.4
654.204	610.2
654.622	583.2
655.019	584.8
655.438	597
655.857	594.6
656.275	588.8
656.673	586.4
657.091	596
657.51	586.2
657.908	589.6
658.327	608
658.746	580.8
659.144	582.8
659.563	602.2
659.982	594.2
660.38	578.8
660.8	596.6
661.219	599.4
661.617	594.4
662.037	589.4
662.457	600.2
662.855	580.8
663.275	626.8
663.695	591.4
664.094	592.8
664.514	589
664.934	581.4
665.333	600.2
665.753	589.4
666.152	580.2
666.572	582.8
666.993	605
667.392	585.2
667.812	586.4
668.212	594
668.632	596
669.053	587.8
669.453	587
669.874	599.4
670.273	596.8
670.694	586.2
671.116	599.4
671.515	601.2
671.937	594
672.337	588.6
672.758	591.4
673.158	599.4
673.58	583.8
673.98	594
674.402	598.2
674.824	589.6
675.224	584.2
675.646	584
676.047	585
676.469	587.6
676.869	595.2
677.292	594.2
677.693	588.6
678.115	589.6
678.516	587.8
678.939	596.2
679.34	592.8
679.762	604.6
680.164	602.4
680.586	582.2
680.988	592.6
681.411	617.2
681.812	583.8
682.236	581.6
682.637	574.6
683.061	585
683.462	596
683.864	582.2
684.288	597.2
684.69	583.4
685.114	593.4
685.516	596.8
685.94	594.4
686.342	599.6
686.766	588.6
687.168	593.2
687.571	608.4
687.995	587.4
688.398	584.2
688.822	582.4
689.225	600.6
689.628	609.8
690.052	589.6
690.456	587.6
690.88	587.8
691.284	580.2
691.687	603.2
692.112	577
692.515	587.4
692.919	590.2
693.344	589.6
693.747	585.2
694.173	579
694.577	601.6
694.98	584.4
695.406	586.6
695.81	592
696.214	585
696.64	598.4
697.044	590
697.448	597.2
697.874	588
698.279	586.8
698.684	579.4
699.11	582
699.514	592
699.919	583
700.324	583.8
700.75	586.4
701.156	584
701.561	599.8
701.987	588.6
702.393	593.2
702.798	597
703.203	593.4
703.63	583.4
704.036	583.2
704.442	588.8
704.847	578.6
705.274	583.8
705.68	594.4
706.086	598.6
706.492	571.6
706.92	584
707.326	592.2
707.732	585.4
708.139	579
708.545	585.2
708.973	577.8
709.38	589.2
709.786	568.4
710.193	603.6
710.6	594
711.028	584
711.435	588.8
711.842	591.6
712.249	576.6
712.656	582.2
713.064	593.8
713.492	578
713.9	582.8
714.307	595.8
714.715	595.4
715.123	593.8
715.53	595.2
715.938	600.4
716.367	582.2
716.775	594.4
717.184	573.6
717.592	581
718	590.2
718.408	618.6
718.816	631.2
719.225	598.2
719.633	588.2
720.042	575.6
720.472	582.8
720.881	612.4
721.29	595.8
721.699	581
722.108	586.4
722.517	594.6
722.926	582.8
723.335	589.8
723.744	577
724.154	592.2
724.563	590.8
724.973	592.6
725.382	583
725.792	592.8
726.202	576.8
726.612	606.2
727.022	582.4
727.432	574.8
779.813	579.8
780.223	629
780.634	585.6
781.044	585
781.454	580.8
781.865	597.4
782.276	580.2
782.686	592.6
783.097	582.6
783.508	574.4
783.919	592.2
784.33	594.6
784.741	598.4
785.152	575.8
785.563	575.6
785.974	583.6
786.386	587
786.776	582.4
787.188	583.6
787.599	582.2
788.011	593.4
788.423	592.4
788.835	576
789.247	584.4
789.659	582.6
790.071	582.6
790.483	627.2
790.874	587.4
791.286	593.4
791.699	573.4
792.111	592.4
792.524	585.2
792.937	590.6
793.349	564.8
793.741	578.4
794.154	582.8
794.567	616.4
794.98	586.4
795.393	570.8
795.785	592.2
796.198	589
796.612	584.6
797.026	578.2
797.439	568.6
797.831	580.4
798.245	572.6
798.659	573
799.073	575.8
799.487	577.6
799.88	576.8
800.294	571.4
800.708	584
801.123	590.2
801.516	594.8
801.93	574.2
802.345	564.6
802.76	571
803.153	599
803.568	593.2
803.983	593
804.377	582.6
804.792	570.8
805.207	568.6
805.601	580.2
806.016	613.6
806.432	571.4
806.826	609.2
807.242	602.6
807.658	580.6
808.052	574.6
808.468	581.2
808.884	580.6
809.279	584.6
809.695	594.6
810.111	608
810.506	579.2
810.922	598.8
811.339	583
811.734	585.2
812.151	582.2
812.546	579.8
812.963	582.8
813.38	590.2
813.776	588.6
814.193	603.2
814.589	581.2
815.006	579.4
815.402	576
815.82	578.2
816.237	577.4
816.633	588.8
817.051	585.4
817.448	594.4
817.866	575.8
818.262	596.4
818.68	578.6
819.077	584.8
819.495	595.4
819.892	629
820.311	578.8
820.708	582.2
821.127	584.6
821.524	594
821.943	581.4
822.34	604.6
822.759	579.6
823.157	585.4
823.576	596.8
823.974	588.8
824.393	627.4
824.791	577.8
825.189	578.4
825.609	584
826.007	588.6
826.427	573.6
826.826	583
827.246	585.4
827.644	562.8
828.043	589
828.463	579.2
828.862	589.8
829.261	588.2
829.682	575
830.081	585.6
830.502	571.2
830.901	591
831.301	589.6
831.722	578.8
832.121	592.8
832.521	583
832.943	581.4
833.342	578
833.742	575.6
834.164	582.6
834.564	574
834.965	587.4
835.386	579.6
835.787	588
836.188	581.4
836.588	578.8
837.01	579.6
837.411	577.4
837.812	590.4
838.213	583.4
838.636	577.4
839.037	649.2
839.438	589.6
839.84	583.6
840.263	595.2
840.664	584.4
841.066	579.8
841.468	575.2
841.891	578.2
842.293	592.2
842.695	584.8
843.098	593.2
843.5	577.4
843.902	596.2
844.326	581.2
844.729	578.8
845.131	592.2
845.534	584
845.937	598.6
846.34	603.8
846.764	582.2
847.167	579.2
847.571	573.2
847.974	574.6
848.377	583.8
848.781	624.8
849.184	583.2
849.588	580
849.992	576.6
850.396	577.2
850.821	590.2
851.225	584.2
851.63	575.4
852.034	601.2
852.438	582.6
852.843	597.2
853.247	573.6
853.652	574.4
854.057	591.6
854.462	579.2
854.867	585.4
855.272	612.2
855.677	583.4
856.082	571
856.487	572
856.893	581.4
857.298	579.6
857.704	578.4
858.11	586.8
858.516	589.4
858.922	581.2
859.328	591.4
859.734	586.4
860.14	585.6
860.525	579.2
860.931	581.6
861.338	571.4
861.745	588.4
862.151	580
862.558	583.6
862.965	572
863.372	579.6
863.779	571
864.186	599.8
864.572	584.6
864.98	590.4
865.387	615.4
865.795	570.6
866.203	583.4
866.61	581.8
867.018	594.6
867.405	591.8
867.813	588
868.221	585.4
868.63	580.8
869.038	582.6
869.425	624.4
869.834	585.8
870.243	576.6
870.652	571
871.039	573.6
871.448	584.6
871.857	587.2
872.266	585.4
872.654	587.4
873.064	578.6
873.473	586.6
873.883	585.2
874.271	575.4
874.681	588.4
875.091	576.2
875.48	585.2
875.89	596.2
876.3	578.2
876.689	575.6
877.1	584
877.51	576.2
877.9	599.8
878.31	574.8
878.721	613.6
879.111	587.6
879.522	582.6
879.933	569.6
880.323	572.4
880.734	577.4
881.125	578.6
881.536	576.4
881.948	577
882.338	574.4
882.75	590.2
883.141	579.2
883.553	585.6
883.944	614.4
884.356	584.2
884.769	575.8
885.16	584
885.573	578.8
885.964	574.6
886.377	582.2
886.768	574.6
887.181	579.6
887.573	572.4
887.987	594.2
888.378	598.8
888.792	583.2
889.184	626.2
889.598	568.6
889.99	584.8
890.383	581.2
890.797	565.6
891.19	585.8
891.604	575.2
891.997	565.4
892.411	569.4
892.805	570.2
893.198	569.6
893.613	556.6
894.006	574.8
894.421	562.8
894.815	567.4
895.209	570.4
895.624	618.2
896.018	586.6
896.412	571.2
896.828	579
897.222	577.6
897.617	570
898.033	592.8
898.427	579.4
898.822	576.4
899.239	565.6
899.634	568.2
900.029	598.8
900.424	572
900.841	568.6
901.236	593
901.632	589.8
902.027	635.6
902.445	594
902.841	575
903.237	570.2
903.633	589.2
904.05	587
904.447	582
904.843	591.2
905.24	576
905.636	574.2
906.033	573.8
906.451	591
906.848	579.2
907.246	574.2
907.643	578.4
908.04	588.8
908.438	598
908.835	586.8
909.254	578.6
909.652	582
910.05	572
910.448	580.6
910.846	581
911.244	574.8
911.643	573.2
912.041	578.4
912.44	597
912.839	569
913.237	580.4
913.636	572.6
914.035	580
914.434	568.8
914.834	588.8
915.233	593.8
915.633	565.2
916.032	576.6
916.432	581
916.832	599
917.232	577.8
917.632	573.8
918.032	588
918.432	571.4
918.833	584.4
919.233	580.6
919.634	565.4
920.035	582.6
920.436	573.4
920.837	577
921.238	581
921.639	582.6
922.019	580.6
922.42	592.8
922.822	586
923.224	581.2
923.625	570.8
924.027	591.6
924.429	605.4
924.81	586.2
925.212	587.8
925.615	580.2
926.017	577.4
926.42	594.2
926.801	580.2
927.204	581.2
927.607	588.6
928.01	595
928.413	582.4
928.795	568.8
929.199	570
929.602	580.2
930.006	572
930.388	576.4
930.792	583.8
931.196	582.8
931.579	611
931.983	570.6
932.388	626
932.771	577.8
933.176	569.4
933.58	583.2
933.964	593.6
934.369	568
934.774	581.6
935.158	567
935.563	583
935.947	575.4
936.353	579.4
936.759	585
937.143	579
937.549	576
937.934	590.4
938.34	596.4
938.746	572
939.131	578.2
939.538	575.2
939.923	580
940.33	571.4
940.716	580.6
941.123	584.8
941.508	587
941.916	596.4
942.302	583.2
942.709	567
943.096	555.4
943.503	586.2
943.89	571.6
944.298	577
944.685	603.8
945.072	574
945.48	585
945.867	566.2
946.276	570
946.663	600.2
947.051	583.4
947.46	593.4
947.848	581.2
948.257	574.6
948.645	576.8
949.033	571.8
949.443	563.6
949.831	622.8
950.22	573.8
950.63	580.6
951.018	610.8
951.407	577.6
951.796	568.2
952.207	581.6
952.596	585.6
952.985	564.6
953.375	628.8
953.786	575.2
954.176	571
954.566	580
954.956	565
955.367	573
955.758	599.2
956.148	572.2
956.539	586.6
956.929	582.2
957.341	571.4
957.732	573.2
958.123	582.2
958.515	559
958.906	580.8
959.297	574.8
959.689	573.4
960.102	566.6
960.494	575.8
960.886	574
961.278	571
961.67	596.4
962.062	616
962.455	575.2
962.847	567.6
963.24	579.6
963.633	580
964.026	569.6
964.419	576
964.812	584.2
965.206	568.2
965.599	578.6
965.993	580.4
966.386	573.6
966.78	587.4
967.174	577.2
967.569	568.4
967.963	572
968.357	571.8
968.752	572.4
969.146	571.4
969.541	568.8
969.936	573.4
970.331	574.4
970.705	577
971.1	573.8
971.496	583.6
971.892	574.4
972.287	573.6
972.683	579.2
973.079	576
973.454	587.8
973.85	583.6
974.247	581.4
974.643	597.8
975.04	575.2
975.415	571.6
975.812	565.2
976.209	573.2
976.607	572.6
976.982	593.2
977.38	590.4
977.778	581.2
978.175	573.6
978.552	583.8
978.95	575.4
979.348	584.2
979.725	619.4
980.123	576.6
980.522	571.2
980.899	568
981.298	576.6
981.697	577.8
982.075	572.6
982.474	568
982.852	567
983.251	574.6
983.651	570.4
984.029	579.6
984.429	575.6
984.808	556.4
985.208	569.8
985.609	568.4
985.987	561
986.388	563.6
986.768	580
987.168	558
987.548	574.6
987.949	576.8
988.329	580.8
988.731	570
989.111	578.4
989.491	570
989.893	572.6
990.273	583.2
990.676	569.4
991.057	567.2
991.459	571.6
991.84	573.4
992.221	561
992.624	593
993.006	580.4
993.388	569.6
993.791	585.2
994.173	579
994.576	607.4
994.959	562.8
995.341	572.8
995.724	568.8
996.128	571.4
996.511	573.8
996.894	567.2
997.298	576.2
997.681	589.4
998.065	572.4
998.448	572.2
998.854	578.4
999.237	566
999.621	589.2
1000.01	589
1000.39	575
1000.8	571.8
1001.18	583.8
1001.56	584.4
1001.95	585.4
1002.33	580.6
1002.72	577
1003.13	582.8
1003.51	576.2
1003.9	568.8
1004.28	593
1004.67	571.4
1005.06	566.8
1005.44	608.4
1005.83	563.8
1006.21	573.8
1006.6	581.2
1006.99	589.2
1007.37	583.4
1007.76	569
1060.12	571.4
1060.51	564.2
1060.89	582.8
1061.28	587.8
1061.67	590.2
1062.06	587.6
1062.45	574.8
1062.83	574.4
1063.22	586.2
1063.61	613.6
1064	584.4
1064.39	579.2
1064.78	575.8
1065.14	594
1065.53	580.4
1065.92	566.8
1066.31	571.4
1066.7	579
1067.09	592.6
1067.46	584.6
1067.85	568.6
1068.24	566.8
1068.63	582.4
1069.02	567.2
1069.39	580
1069.78	568.4
1070.17	574.8
1070.57	573.4
1070.93	580.4
1071.33	567.4
1071.72	576.6
1072.11	574.2
1072.48	572.6
1072.87	579
1073.26	570.8
1073.64	581.4
1074.03	569
1074.4	575.4
1074.79	581
1075.19	578.8
1075.56	576
1075.95	578.2
1076.34	559.4
1076.72	572
1077.11	580.8
1077.48	590
1077.88	576.8
1078.25	567.4
1078.64	573.4
1079.02	578.4
1079.41	583.8
1079.78	569
1080.18	569.4
1080.55	633.6
1080.95	568.4
1081.32	575
1081.72	572.4
1082.09	571
1082.49	559.4
1082.86	564.4
1083.24	561.2
1083.63	553
1084.01	575
1084.38	576.8
1084.78	577.4
1085.16	577.2
1085.55	585
1085.93	590.4
1086.31	561.6
1086.7	600.4
1087.08	579.6
1087.46	568
1087.83	574.4
1088.23	579
1088.61	567.2
1088.99	571.4
1089.36	575.6
1089.76	582.2
1090.14	569.6
1090.52	580.2
1090.9	567.4
1091.27	590.4
1091.67	584.6
1092.05	576.4
1092.43	571
1092.81	576
1093.19	579.8
1093.57	566.6
1093.95	562.2
1094.35	581.2
1094.73	576.8
1095.11	570
1095.49	574
1095.87	567.2
1096.25	582
1096.63	582.8
1097.01	560.8
1097.39	584.8
1097.77	573.6
1098.15	584.8
1098.53	570.6
1098.91	571.8
1099.29	575.6
1099.68	585.8
1100.06	579.4
1100.44	577.4
1100.82	573.6
1101.18	576.8
1101.56	565.8
1101.95	572
1102.33	577
1102.71	580.4
1103.1	569.2
1103.48	560.4
1103.86	568.4
1104.22	582
1104.61	575.4
1104.99	569.8
1105.38	563
1105.76	570
1106.12	574.6
1106.51	608
1106.89	584.8
1107.26	581.4
1107.64	576.2
1108.03	570.4
1108.41	575.8
1108.78	580.6
1109.16	568.8
1109.55	586.8
1109.91	566.6
1110.3	562.2
1110.69	590.8
1111.05	575.2
1111.44	570.6
1111.8	577.2
1112.19	582.2
1112.58	581.8
1112.94	571.6
1113.33	567
1113.7	571.6
1114.09	579.2
1114.45	562.6
1114.84	566.8
1115.21	580.2
1115.6	571.2
1115.96	576
1116.35	578
1116.72	564.6
1117.11	579.6
1117.48	563.4
1117.85	577.4
1118.24	587
1118.6	571.2
1118.99	577.8
1119.36	579.2
1119.73	574.4
1120.12	576.2
1120.49	563.4
1120.86	581.6
1121.25	569.2
1121.62	559.6
1121.99	572.4
1122.38	573.8
1122.76	572.4
1123.13	574.8
1123.5	571.6
1123.89	573
1124.26	563.2
1124.63	565.4
1125	574.6
1125.4	562.2
1125.77	568
1126.14	550.8
1126.51	579.2
1126.88	571.2
1127.26	565.8
1127.63	556.6
1128.02	561.6
1128.4	563.8
1128.77	569.2
1129.14	569.6
1129.52	570.2
1129.89	575.8
1130.26	566.8
1130.64	562
1131.01	562
