#lambda/nm	C1
208.295	509.4
208.67	464.8
209.045	429.8
209.419	426.6
209.794	623.2
210.169	589.4
210.544	723
210.919	620.8
211.295	614.6
211.67	616.2
212.045	606.8
212.421	607
212.796	647.4
213.172	607.2
213.547	609
213.923	616.4
214.299	607.2
214.675	614
215.051	617.2
215.427	611.6
215.803	636.2
216.179	626.8
216.555	606.6
216.932	629
217.308	623
217.684	617
218.061	625
218.438	617.8
218.814	616
219.191	620.8
219.568	606.2
219.945	615.8
220.322	632.2
220.699	617.4
221.076	625.4
221.453	614.4
221.83	608.6
222.208	605.6
222.585	617
222.962	616.6
223.34	619
223.717	619
224.095	614.4
224.473	624.8
224.851	608.4
225.229	610.6
225.607	633.2
225.985	599.4
226.363	610.2
226.741	615.2
227.119	615.8
227.497	634.6
227.876	604.2
228.254	616
228.633	622.6
229.011	606.2
229.39	620.6
229.769	619
230.148	628.4
230.527	629.4
230.905	615.8
231.284	620.8
231.664	613.8
232.043	622.2
232.422	619.6
232.801	603.4
233.181	631.2
233.56	619.2
233.94	616.2
234.319	600
234.699	611.4
235.079	660.4
235.458	659.6
235.838	634.4
236.218	613.4
236.598	606.4
236.978	608
237.358	615.6
237.738	613.6
238.119	621.2
238.499	607.4
238.88	618.4
239.26	620.2
239.641	599.6
240.021	606.2
240.402	607.4
240.783	610.2
241.163	618.2
241.544	620.8
241.925	615.8
242.306	633.8
242.687	616.2
243.069	617
243.45	632.6
243.831	607.4
244.212	611.8
244.594	654.2
244.975	631.8
245.357	618
245.739	602.4
246.12	611.6
246.502	634.8
246.884	620.8
247.266	618.2
247.648	615.4
248.03	640.2
248.412	613.6
248.794	615.2
249.176	608.8
249.559	629
249.941	607.4
250.323	608.2
250.706	612.4
251.089	616.2
251.471	619.8
251.854	618.6
252.237	606.4
252.62	622.6
253.002	603.6
253.385	607.2
253.769	630
254.152	617.6
254.535	627
254.918	602.8
255.301	609.2
255.685	611
256.068	610.8
256.452	633.6
256.835	626.4
257.219	615.4
257.603	626
257.986	602
258.37	614.2
258.754	603.8
259.138	623.6
259.522	626
259.906	613.4
260.29	617.4
260.675	612
261.059	616.4
261.443	604.4
261.828	626.2
262.212	626.8
262.597	603.4
262.981	612
263.366	622.8
263.751	617.6
264.136	611.4
264.521	605
264.906	607.2
265.291	632
265.676	608
266.061	625.4
266.446	636.6
266.831	624.2
267.217	641.8
267.602	619.8
267.987	623.2
268.373	609.8
268.759	624
269.144	616.8
269.53	616.6
269.916	618.6
270.302	611
270.688	624.8
271.074	625
271.46	622.2
271.846	644.6
272.232	614.4
272.618	611
273.004	608.4
273.391	627.6
273.777	624.2
274.164	619.6
274.55	625.6
274.937	610.6
275.324	617
275.71	624.2
276.097	629
276.484	608.2
276.871	618
277.258	617.6
277.645	602.8
278.032	613.8
278.419	615.8
278.807	619.4
279.194	604
279.581	603.6
279.969	613.4
280.356	624.4
280.744	626.2
281.131	640.6
281.519	625.4
281.907	612.6
282.295	614.4
282.682	628.6
283.07	632.6
283.458	629.4
283.846	631.8
284.235	624
284.623	624.6
285.011	609.4
285.399	616.4
285.788	616.2
286.176	615.4
286.565	630.2
286.953	614.4
287.342	609.4
287.731	610.4
288.119	610.6
288.508	603.2
288.897	613.4
289.286	602.6
289.675	613.6
290.064	630.8
290.453	615.4
290.821	617.8
291.21	623.8
291.599	605
291.989	621
292.378	623.6
292.768	634.2
293.157	614.8
293.547	627.8
293.936	607.6
294.326	615.8
294.716	621
295.106	618.6
295.496	625
295.886	631.2
296.276	610.4
296.666	619.2
297.056	617.4
297.446	610
297.836	632
298.227	617.6
298.617	625.6
299.008	628.4
299.398	616.2
299.789	604.2
300.179	623.4
300.57	625
300.961	616.4
301.352	607.6
301.742	615.4
302.133	613.2
302.524	609.2
302.915	627.2
303.307	606
303.698	627.4
304.089	624.4
304.48	612.8
304.872	621.8
305.263	619.4
305.655	602.8
306.046	620.6
306.438	622
306.829	616.6
307.221	627.2
307.613	615.4
308.005	627.8
308.397	631
308.789	644.8
309.181	642.4
309.573	630.8
309.965	626.4
310.357	604.6
310.749	633.8
311.142	624.2
311.534	614.8
311.926	632.4
312.319	621.4
312.711	611.4
313.104	622
313.497	620.4
313.889	658.6
314.282	625.2
314.675	645.2
315.068	618.6
315.461	621.8
315.854	638.4
316.247	615.4
316.64	612.6
317.033	622.4
317.405	625.8
317.798	615.8
318.192	628.8
318.585	610
318.979	626.6
319.372	606.4
319.766	611.2
320.16	624.2
320.553	634.8
320.947	633.8
321.341	618.8
321.735	622.6
322.129	595.8
322.523	638
322.917	613.8
323.311	633.2
323.705	620.8
324.099	624.8
324.494	636
324.888	624.6
325.282	618.4
325.677	629.6
326.071	623.8
326.466	627.8
326.861	626.4
327.255	624.2
327.65	626.8
328.045	632.8
328.44	621.6
328.835	620.4
329.23	609.6
329.625	644
330.02	615.8
330.415	642.8
330.81	628
331.206	621.4
331.601	616.2
331.996	625.8
332.37	635.2
332.766	604
333.161	637.6
333.557	611.4
333.953	623.8
334.348	987.6
334.744	624.2
335.14	618.8
335.536	614.4
335.932	624.8
336.328	619.2
336.724	619.4
337.12	617.4
337.516	617.6
337.913	618.2
338.309	626
338.705	611.8
339.102	623
339.498	608.2
339.895	632.6
340.291	612.8
340.688	622.4
341.085	609.4
341.481	616.8
341.878	622.4
342.275	642.8
342.672	607.6
343.069	615.8
343.466	603.4
343.842	628.8
344.239	606.8
344.636	617.4
345.033	605.4
345.431	605.4
345.828	621.4
346.225	611.2
346.623	650.4
347.02	625.8
347.418	627.4
347.816	626.6
348.213	597.2
348.611	618.4
349.009	608.6
349.407	626.4
349.805	604.6
350.203	610.4
350.601	625.6
350.999	613.6
351.397	680
351.795	609.4
352.193	623.6
352.57	619.8
352.969	632.6
353.367	602.6
353.766	599.2
354.164	603.6
354.563	617
354.961	604.6
355.36	608.8
355.759	610.6
356.158	605.8
356.557	609.6
356.956	606.2
357.355	599.4
357.754	611.8
358.153	620.4
358.552	631.4
358.951	609.2
359.35	624
359.75	610
360.149	596.2
360.527	603.4
360.926	595.6
361.326	609
361.726	612.4
362.125	599.8
362.525	617.2
362.925	611
363.325	614.4
363.724	619.2
364.124	611.4
364.524	601
364.924	608.4
365.324	614.8
365.725	592.4
366.125	615
366.525	614.2
366.904	602.4
367.304	586.6
367.705	632.2
368.105	620.4
368.506	613.8
368.906	606.4
369.307	606.6
369.708	612
370.108	592.2
370.509	619.2
370.91	604
371.311	602.8
371.712	599.6
372.113	614.4
372.514	600
372.894	615.2
373.295	608.4
373.696	621.6
374.097	616.6
374.499	642.4
374.9	614.4
375.301	607.6
375.703	615.6
376.105	603.8
376.506	615.4
376.908	617.6
377.309	618
377.711	615
378.113	600.8
378.493	613
378.895	604.6
379.297	614
379.699	598
380.102	612.6
380.504	608.8
380.906	612.8
381.308	640.8
381.71	608.4
382.113	626
382.515	604.2
382.918	619.2
383.299	608.2
383.701	601
384.104	610.6
384.507	591.2
384.909	604.4
385.312	594.8
385.715	597.8
386.118	608.4
386.521	590.8
386.924	624.6
387.327	605.8
387.709	603
388.112	588.4
388.515	603.4
388.918	608.2
389.322	622.6
389.725	606
390.129	629.2
390.532	603.4
390.936	605
391.339	606.2
391.743	611.4
392.125	600.8
392.529	618.2
392.933	623.8
393.337	609.2
393.74	609.2
394.144	607.6
394.548	597.8
394.953	603.8
395.357	613.6
395.761	601.6
396.144	606.6
396.548	613.8
396.952	602.8
397.357	604.4
397.761	597.6
398.166	610
398.57	612.8
398.975	607.2
399.379	611.4
399.763	664.6
400.168	604
400.572	605.2
400.977	602.6
401.382	624.2
401.787	613.4
402.192	623.6
402.597	619.2
403.002	594.2
403.386	618
403.791	626.6
404.197	607.4
404.602	605.4
405.007	605.4
405.413	608
405.818	609
406.224	604
406.608	613.2
407.014	601
407.42	615.2
407.825	600
408.231	612.8
408.637	603.8
409.043	624.6
409.449	611.6
409.834	596.6
410.24	614.8
410.646	627.4
411.052	616.4
411.458	608.2
411.865	617.4
412.271	616
412.677	616.6
413.062	619.8
413.469	598.6
413.875	637.2
414.282	630.2
414.689	613.2
415.095	614.2
415.502	603.4
415.888	608.4
416.294	603.2
416.701	659.4
417.108	604.4
417.515	631.6
417.923	608.8
418.33	624.6
418.715	620.8
419.123	610
419.53	610
419.937	610.8
420.345	619.4
420.752	602.8
421.16	624.4
421.546	608.4
421.953	615.4
422.361	600.4
422.769	606
423.177	598
423.585	630.6
423.992	635.4
424.379	621.8
424.787	623.8
425.195	634.8
425.603	617.4
426.011	622.6
426.419	626.2
426.806	618
427.214	623.6
427.623	622.4
428.031	631.6
428.44	612.4
428.848	621
429.235	629.2
429.644	612.6
430.053	618
430.461	626.8
430.87	637
431.279	617.2
431.666	612.2
432.075	617.2
432.484	629
432.893	621.2
433.302	631.6
433.711	672.4
434.099	632.2
434.508	627
434.918	621
435.327	633
435.737	635.4
436.125	646.6
436.534	640.4
436.944	637.4
437.353	649.8
437.763	670.2
438.173	640.2
438.561	660.8
438.971	642.8
439.381	661.8
439.791	679.4
440.201	655.6
440.589	680.4
440.999	691
441.409	686.8
441.819	673.2
442.23	710.4
442.619	699.4
443.029	707.2
443.439	704.8
443.85	708.6
444.26	726.6
444.649	718.2
445.06	713.2
445.471	711.2
445.881	719.6
446.292	738.8
446.682	746
447.092	718.4
447.503	776.2
447.914	735.6
448.325	739.8
448.715	741
449.126	744.4
449.537	742.8
449.948	751
450.338	740.8
450.75	746.8
451.161	744
451.572	755
451.984	747.8
452.374	740.4
452.786	761.4
453.197	756
453.609	768.8
453.999	741.2
454.411	750.4
454.823	766.8
455.235	766.4
455.647	764
456.037	753.2
456.449	747.2
456.862	755.6
457.274	762.4
457.665	755.8
458.077	775.6
458.489	794
458.902	760.8
459.293	757.4
459.705	766.8
460.118	756.6
460.53	768.8
460.921	765.2
461.334	768
461.747	775.6
462.16	781.8
462.551	780.8
462.964	778.8
463.377	759.4
463.79	773.8
464.182	799
464.595	775.8
465.008	786.4
465.421	774.4
465.813	782.2
466.226	785.2
466.64	771.8
467.053	821.6
467.445	791.4
467.859	802
468.272	788.4
468.686	794.8
469.078	778.8
469.492	772.2
469.906	784.8
470.298	795.6
470.712	786.8
471.126	827.6
471.54	776.6
471.933	775.8
472.347	778.8
472.761	767.4
473.175	769.2
473.568	775.2
473.982	776.4
474.397	778
474.79	787.4
475.204	784.8
475.619	791
476.033	789.6
476.426	779.8
476.841	780
477.256	804.6
477.649	774
478.064	772.4
478.479	780.6
478.872	774.4
479.287	773.8
479.702	768.8
480.118	777.6
480.511	777.2
480.927	776.2
481.342	770.2
481.736	778.8
482.151	776.4
482.566	781.8
482.96	773.4
483.376	778
483.792	765.6
484.186	778
484.602	761.8
485.017	771.2
485.412	766.6
485.827	771.8
486.243	767.2
486.638	780.4
487.054	768
487.47	781.2
487.865	759.6
488.281	752.6
488.697	753.6
489.092	759.4
489.508	758.8
489.925	760.2
490.32	754.6
490.736	761
491.153	757.6
491.548	760.8
491.964	767.2
492.381	745
492.776	751.2
493.193	762
493.61	746
494.006	746.2
494.422	751.2
494.84	736.6
495.235	758
495.652	734
496.069	745.4
496.465	730.4
496.883	739.4
497.3	756.6
497.696	744.8
498.113	745.6
498.509	730.8
498.927	728
499.344	728.8
499.741	730.4
500.158	741.2
500.576	738.6
500.973	736.4
501.39	729.2
501.787	723.2
502.205	736.2
502.623	713.8
503.02	714.6
503.438	719
503.856	722.8
504.253	722.6
504.671	731.4
505.068	716.8
505.486	715.8
505.905	743.6
506.302	717.6
506.72	725.2
507.118	705.8
507.536	701
507.955	710.2
508.352	714.6
508.771	713.8
509.169	717.8
509.587	700.4
510.006	714
510.404	691.2
510.823	700.6
511.221	696.4
511.64	705.8
512.038	721.6
512.457	701
512.877	695.2
513.275	695.4
513.694	699
514.092	693.4
514.512	696
514.91	701.8
515.33	693.8
515.749	692.2
516.148	694.2
516.568	701.4
516.966	691.6
517.386	679.2
517.785	690
518.205	687.8
518.603	678.8
519.024	687.2
519.444	687.2
519.843	684
520.263	696
520.662	681
521.082	680
521.481	683.6
521.902	681.6
522.301	686.6
522.722	689.2
523.121	678.4
523.542	675
523.963	677.2
524.362	680
524.783	679
525.183	672.4
525.604	683.6
526.003	672.2
526.425	671.6
526.824	676.6
527.246	696.4
527.646	687.8
528.067	675.8
528.467	678.2
528.888	677.8
529.289	663.4
529.71	671.4
530.11	672
530.532	666.8
530.932	661.2
531.354	657
531.755	699.4
532.176	670.8
532.577	662.4
532.999	662.4
533.4	658.4
533.822	670.6
534.223	673
534.645	654.6
535.046	655.8
535.468	654.8
535.869	670.2
536.292	651.4
536.693	687.8
537.115	656.4
537.516	654
537.939	645.8
538.34	672.8
538.742	669
539.165	655.2
539.566	655.4
539.989	637.8
540.391	641
540.814	642
541.216	646.4
541.639	652.8
542.041	665
542.464	649.8
542.866	637
543.268	638.6
543.691	652
544.093	652
544.517	667
544.919	642.6
545.343	673
545.745	630
546.147	646
546.571	641.8
546.974	628.8
547.398	635.2
547.8	654.4
548.224	633.8
548.627	629.2
549.03	642
549.454	634.4
549.857	630.2
550.281	629.8
550.684	628
551.087	647.2
551.512	636.4
551.915	646.8
552.34	639.8
552.743	637.8
553.146	641
553.571	633.6
553.975	653.4
554.399	628.8
554.803	693
555.207	629.6
555.632	627.2
556.036	635.8
556.461	629
556.865	637.6
557.268	625.2
557.694	630
558.098	632
558.502	630.6
558.927	625
559.332	628.4
559.736	638.2
560.162	634.6
560.566	629.6
560.992	632
561.396	622.6
561.801	626.8
562.227	620
562.631	624.2
563.036	623
563.462	633.4
563.867	632.6
564.272	616.6
564.698	632.2
565.103	616
565.508	639.8
565.935	623.4
566.34	616.2
566.745	637.2
567.172	620.8
567.577	639.8
567.982	634.6
568.409	629.6
568.815	617
569.22	623.4
569.626	636.2
570.053	597
570.459	623.8
570.865	627.2
571.292	624
571.698	623.6
572.104	611
572.531	612.6
572.937	622.8
573.343	614
573.75	618.8
574.177	618.2
574.583	618.8
574.99	615.6
575.396	624.6
575.824	621.4
576.231	622.4
576.637	615.2
577.065	634.6
577.472	605
577.879	609.8
578.286	633.4
578.714	602.8
579.121	601.8
579.528	602.4
579.935	618.8
580.364	608.4
580.771	600.6
581.178	603.4
581.585	612.2
582.014	614.4
582.421	607.2
582.829	600.8
583.236	616.4
583.644	600
584.073	603.4
584.481	617.2
584.889	611.4
585.296	612.2
585.726	610
586.134	602.6
586.542	609.6
586.95	626.6
587.358	602
587.787	616.4
588.196	620.6
588.604	605.6
589.012	604.2
589.421	600.8
589.851	592.2
590.259	606.8
590.668	605.8
591.076	639.8
591.485	600.8
591.894	607.6
592.324	623.6
592.733	614
593.142	591.4
593.551	598
593.96	632.4
594.369	592.8
594.8	599.2
595.209	605.4
595.618	599.6
596.028	601.6
596.437	600.4
596.847	608
597.256	605.6
597.687	605.2
598.097	601.2
598.507	594.2
598.917	607.2
599.327	604.8
599.736	600.2
600.146	611.4
600.556	598.6
600.988	614.4
601.398	598.2
601.808	607.4
602.219	590.6
602.629	602.2
603.039	605
603.45	619.6
603.86	614.8
604.271	618.4
604.703	603.4
605.114	598.8
605.525	600
605.935	600
606.346	624.2
606.757	614
607.168	601
607.579	594.2
607.99	607
608.402	594.6
608.813	599.2
609.224	601.6
609.636	589.6
610.047	601.2
610.48	597.2
610.892	606.6
611.303	611.4
611.715	594.2
612.127	598
612.539	601.8
612.95	600.6
613.362	590.4
613.774	594
614.186	595.8
614.599	600.6
615.011	607.6
615.423	598.2
615.835	592.8
616.248	589.6
616.66	603.6
617.073	583.6
617.485	602.2
617.898	605
618.311	603.2
618.723	592.8
619.136	630
619.549	611.6
619.962	617
620.375	601
620.788	605
621.201	591.6
621.614	602.8
622.028	603.4
622.441	594.6
622.854	607.8
623.268	590.8
623.681	607.4
624.095	596.8
624.509	613.8
624.922	604
625.336	586.2
625.728	600.4
626.142	610
626.556	616.2
626.97	602.6
627.384	591
627.799	598.2
628.213	605.2
628.627	599.6
629.041	592.4
629.456	592
629.87	600
630.285	609
630.699	608.2
631.093	594
631.507	599.2
631.922	596.2
632.337	613.8
632.752	587.8
633.167	604.2
633.582	600.4
633.997	591
634.412	585.6
634.806	600
635.221	586.2
635.637	611.2
636.052	589.6
636.468	599
636.883	618.8
637.299	596.8
637.715	573.6
638.109	591.4
638.525	578.8
638.941	612
639.357	602.2
639.773	609.4
640.189	591.2
640.584	594.2
641	595.4
641.416	586.2
641.832	587.2
642.249	583.4
642.665	596.8
643.06	595
643.477	600.8
643.894	579.6
644.31	585.6
644.727	586.2
645.123	584
645.54	580.4
645.957	588.2
646.374	597.6
646.77	597.6
647.187	618.4
647.604	588.6
648.021	573.6
648.439	582.2
648.835	592.4
649.252	596.6
649.67	581.8
650.088	591
650.484	593.2
650.902	598.4
651.32	602.2
651.738	594.2
652.134	587
652.552	611.8
652.971	607.6
653.389	588.2
653.786	607.2
654.204	603.8
654.622	581
655.019	597.4
655.438	597.2
655.857	591
656.275	596.4
656.673	582.4
657.091	597.2
657.51	589.8
657.908	603.2
658.327	602.8
658.746	574.4
659.144	591.6
659.563	607.6
659.982	595.8
660.38	585.8
660.8	590
661.219	601.4
661.617	597.2
662.037	598.4
662.457	606.4
662.855	577.6
663.275	624.2
663.695	589.8
664.094	587.8
664.514	598.8
664.934	588.2
665.333	605.8
665.753	598.8
666.152	588
666.572	582
666.993	605
667.392	594
667.812	591.4
668.212	586.4
668.632	601.8
669.053	585.2
669.453	595.6
669.874	596.2
670.273	604
670.694	582.6
671.116	617.8
671.515	600.8
671.937	593.6
672.337	585.4
672.758	584.8
673.158	593.6
673.58	587.2
673.98	599.4
674.402	604
674.824	601.2
675.224	594.6
675.646	582.2
676.047	583.8
676.469	593.8
676.869	590.6
677.292	595.6
677.693	584.4
678.115	590.4
678.516	588.8
678.939	594.6
679.34	591.2
679.762	597.4
680.164	595
680.586	584
680.988	588.8
681.411	618.4
681.812	588.2
682.236	587.6
682.637	581.6
683.061	577
683.462	588.2
683.864	591.4
684.288	598.4
684.69	582.2
685.114	596.8
685.516	596.2
685.94	577
686.342	585.2
686.766	580.6
687.168	582
687.571	608.8
687.995	581
688.398	578.4
688.822	586
689.225	603.8
689.628	601
690.052	581.6
690.456	591.4
690.88	585.4
691.284	581.8
691.687	600.2
692.112	577.6
692.515	582.4
692.919	588.6
693.344	591.6
693.747	585.6
694.173	584
694.577	599.2
694.98	593.8
695.406	586.8
695.81	588.8
696.214	591.6
696.64	592
697.044	589.4
697.448	602.2
697.874	590.6
698.279	582
698.684	573.8
699.11	572.2
699.514	584.8
699.919	581.2
700.324	577.8
700.75	593.2
701.156	590.2
701.561	597.8
701.987	592.4
702.393	605.6
702.798	595.6
703.203	582.4
703.63	584.6
704.036	584.8
704.442	589.8
704.847	582.8
705.274	581
705.68	593.2
706.086	603.6
706.492	578
706.92	587.8
707.326	600.2
707.732	587.4
708.139	586.6
708.545	576.4
708.973	578.6
709.38	577.8
709.786	583
710.193	601.8
710.6	583.8
711.028	584.6
711.435	580.4
711.842	593.2
712.249	589.4
712.656	584.6
713.064	595.8
713.492	581.8
713.9	579
714.307	588.8
714.715	592.6
715.123	594.8
715.53	589.4
715.938	599.2
716.367	588
716.775	589
717.184	580.6
717.592	587
718	600.4
718.408	618.8
718.816	625.2
719.225	593.2
719.633	589.6
720.042	582.8
720.472	583.8
720.881	608
721.29	596.6
721.699	570.6
722.108	585.4
722.517	591.6
722.926	575.2
723.335	592.4
723.744	585.8
724.154	586.4
724.563	588.6
724.973	593
725.382	593.8
725.792	585.4
726.202	569
726.612	607.2
727.022	586.2
727.432	586.8
779.813	587.6
780.223	645.2
780.634	586
781.044	583
781.454	586.4
781.865	605.2
782.276	582.8
782.686	598
783.097	585.4
783.508	580.4
783.919	586.2
784.33	599.6
784.741	601.2
785.152	585.8
785.563	571
785.974	575
786.386	583.8
786.776	587.6
787.188	590
787.599	575
788.011	588
788.423	596.2
788.835	585
789.247	584.4
789.659	574.8
790.071	580.2
790.483	622.2
790.874	578.8
791.286	591.8
791.699	577
792.111	589.4
792.524	575
792.937	579.2
793.349	574
793.741	576.8
794.154	576.8
794.567	607.4
794.98	579.6
795.393	569.2
795.785	595.2
796.198	571.4
796.612	581
797.026	575.2
797.439	565.4
797.831	582.2
798.245	572
798.659	578.8
799.073	580.6
799.487	579.8
799.88	584.2
800.294	576.6
800.708	593.6
801.123	579.6
801.516	604.6
801.93	578.6
802.345	571.8
802.76	578.6
803.153	593.4
803.568	598.4
803.983	596.6
804.377	598
804.792	571.8
805.207	574.4
805.601	581
806.016	619.4
806.432	579.2
806.826	610.8
807.242	602.6
807.658	595.6
808.052	582.8
808.468	578.6
808.884	579.6
809.279	579
809.695	600.4
810.111	602.6
810.506	589.6
810.922	596.6
811.339	585
811.734	596
812.151	579.8
812.546	579.8
812.963	577.6
813.38	585.6
813.776	580.4
814.193	603.4
814.589	582.6
815.006	572.2
815.402	577.6
815.82	577
816.237	586.6
816.633	590
817.051	578.8
817.448	599.2
817.866	570.6
818.262	607
818.68	578.6
819.077	580.4
819.495	578.8
819.892	621.4
820.311	579.8
820.708	575.2
821.127	580
821.524	600
821.943	585.8
822.34	599.6
822.759	587.4
823.157	584.4
823.576	600.8
823.974	589.2
824.393	633.2
824.791	580.6
825.189	570.4
825.609	578.2
826.007	580.6
826.427	571.4
826.826	575.4
827.246	585.2
827.644	570.8
828.043	584
828.463	577
828.862	584.4
829.261	589.6
829.682	563.4
830.081	587
830.502	576.8
830.901	579.2
831.301	598.4
831.722	571
832.121	577.6
832.521	572.8
832.943	575.8
833.342	582.2
833.742	572.6
834.164	580.6
834.564	572.8
834.965	576.8
835.386	575.8
835.787	572.6
836.188	587
836.588	587.6
837.01	584.2
837.411	580.8
837.812	587
838.213	589.8
838.636	579
839.037	654.8
839.438	584.2
839.84	586.8
840.263	588.2
840.664	586
841.066	581.8
841.468	584.8
841.891	580.8
842.293	588.4
842.695	581.2
843.098	598.4
843.5	579.8
843.902	578
844.326	588
844.729	588.8
845.131	593.8
845.534	582.4
845.937	588.4
846.34	596.4
846.764	576.8
847.167	584.4
847.571	576.8
847.974	576.8
848.377	566.4
848.781	628.8
849.184	598
849.588	578.4
849.992	577.4
850.396	592.2
850.821	600.8
851.225	586.6
851.63	576.4
852.034	598.4
852.438	580.6
852.843	664.4
853.247	578.2
853.652	579.2
854.057	598
854.462	584.2
854.867	593.6
855.272	613
855.677	594.4
856.082	577.4
856.487	580
856.893	582.6
857.298	581.6
857.704	572.4
858.11	579.8
858.516	594.2
858.922	589.6
859.328	594.4
859.734	585
860.14	589.8
860.525	577.6
860.931	578
861.338	580.8
861.745	583
862.151	590.8
862.558	589.8
862.965	573.2
863.372	582.2
863.779	579.8
864.186	600.6
864.572	587.4
864.98	598
865.387	622.6
865.795	573
866.203	593.8
866.61	574.6
867.018	591.4
867.405	588
867.813	580.4
868.221	580.8
868.63	573
869.038	599.8
869.425	622.2
869.834	578.8
870.243	579.2
870.652	569.8
871.039	576.4
871.448	581.8
871.857	589.4
872.266	582.4
872.654	586.6
873.064	582.2
873.473	589.4
873.883	575.6
874.271	575.6
874.681	586
875.091	570
875.48	597.2
875.89	608.2
876.3	576.2
876.689	570.6
877.1	580.8
877.51	578.2
877.9	608.6
878.31	573.8
878.721	608.2
879.111	582.4
879.522	586.6
879.933	569.4
880.323	561.2
880.734	567.8
881.125	586.6
881.536	574.2
881.948	574.6
882.338	586
882.75	591
883.141	577.4
883.553	579
883.944	617.2
884.356	576.2
884.769	581.6
885.16	588.6
885.573	581.6
885.964	576.8
886.377	582.6
886.768	573.2
887.181	581.6
887.573	569.8
887.987	587.2
888.378	588.2
888.792	582.2
889.184	628.6
889.598	571.6
889.99	582.4
890.383	573.2
890.797	570.2
891.19	599.4
891.604	576.4
891.997	577.4
892.411	574.6
892.805	578.4
893.198	581.6
893.613	566
894.006	572.6
894.421	566.4
894.815	575.2
895.209	575.6
895.624	625.6
896.018	591.4
896.412	573
896.828	583.2
897.222	586.4
897.617	576.6
898.033	606.2
898.427	585
898.822	576
899.239	571
899.634	565.4
900.029	588.8
900.424	568.8
900.841	564
901.236	582.8
901.632	594.4
902.027	634.6
902.445	586
902.841	577.2
903.237	583
903.633	589.8
904.05	589.8
904.447	581
904.843	592
905.24	576.2
905.636	579.6
906.033	580
906.451	591
906.848	567.4
907.246	575.8
907.643	583.6
908.04	586.2
908.438	595
908.835	594
909.254	579.8
909.652	597.8
910.05	585.6
910.448	567.6
910.846	588.4
911.244	569.6
911.643	590.2
912.041	579
912.44	606
912.839	573.8
913.237	578.8
913.636	577.2
914.035	584
914.434	579.2
914.834	595
915.233	589.4
915.633	575.2
916.032	573.6
916.432	578
916.832	596.6
917.232	567.8
917.632	576.8
918.032	580.8
918.432	581.2
918.833	576.6
919.233	567.6
919.634	573.6
920.035	582.8
920.436	575.2
920.837	578.4
921.238	572.2
921.639	577.8
922.019	585.8
922.42	575.2
922.822	583.4
923.224	586
923.625	575.6
924.027	578.4
924.429	600.4
924.81	573.2
925.212	582.8
925.615	577.2
926.017	572.6
926.42	586.4
926.801	579
927.204	581.8
927.607	581.2
928.01	584
928.413	584.6
928.795	569.8
929.199	574.8
929.602	565.4
930.006	569
930.388	575.2
930.792	572.8
931.196	580.6
931.579	610.6
931.983	571
932.388	626.8
932.771	579.2
933.176	571.4
933.58	580.6
933.964	586.8
934.369	568.6
934.774	579.6
935.158	579.6
935.563	584
935.947	589
936.353	584.8
936.759	570
937.143	584
937.549	580
937.934	586.4
938.34	595
938.746	569.8
939.131	574.8
939.538	578.6
939.923	589.2
940.33	572.2
940.716	579.8
941.123	574.4
941.508	582.4
941.916	589.8
942.302	588.2
942.709	573.6
943.096	571
943.503	585.2
943.89	565
944.298	567
944.685	613.6
945.072	577
945.48	588
945.867	570.8
946.276	573.8
946.663	597.6
947.051	597.2
947.46	587.4
947.848	583.6
948.257	578.8
948.645	579.8
949.033	577.4
949.443	579
949.831	619.4
950.22	575.4
950.63	583.6
951.018	610.6
951.407	574.4
951.796	575.6
952.207	590
952.596	580
952.985	572.6
953.375	622
953.786	577
954.176	570.8
954.566	589
954.956	566.6
955.367	579.4
955.758	601.4
956.148	559.4
956.539	591.4
956.929	575.2
957.341	565.6
957.732	573.4
958.123	587
958.515	564.4
958.906	583.8
959.297	578.4
959.689	573.2
960.102	569
960.494	581.6
960.886	584
961.278	570.6
961.67	603.4
962.062	618
962.455	574
962.847	574.6
963.24	570
963.633	580
964.026	567
964.419	578.4
964.812	589.4
965.206	578
965.599	580.4
965.993	579.2
966.386	579.4
966.78	588.8
967.174	587.4
967.569	566.2
967.963	566.2
968.357	573.6
968.752	566.4
969.146	584.8
969.541	577.8
969.936	578.4
970.331	579.6
970.705	581.2
971.1	573
971.496	582
971.892	565.8
972.287	573.8
972.683	569.4
973.079	573
973.454	590.4
973.85	583.2
974.247	584.2
974.643	594.4
975.04	582.2
975.415	573.2
975.812	568.4
976.209	576.4
976.607	566.8
976.982	590.2
977.38	593
977.778	577.2
978.175	570
978.552	585.4
978.95	577
979.348	586.2
979.725	617
980.123	578.4
980.522	576.2
980.899	576.2
981.298	569.8
981.697	572.4
982.075	571.2
982.474	569
982.852	578.4
983.251	580.6
983.651	575.8
984.029	581
984.429	578
984.808	572.4
985.208	573
985.609	575.4
985.987	572.4
986.388	568.8
986.768	589
987.168	570.8
987.548	578.6
987.949	578
988.329	580.4
988.731	559.2
989.111	573.4
989.491	568.2
989.893	572
990.273	580.4
990.676	566.2
991.057	563.4
991.459	572.8
991.84	570.6
992.221	568.6
992.624	593.4
993.006	579.2
993.388	578.8
993.791	583.2
994.173	573.4
994.576	612.6
994.959	561.2
995.341	568.6
995.724	568.6
996.128	579
996.511	574.2
996.894	560.8
997.298	577.8
997.681	580.8
998.065	573
998.448	574.4
998.854	576.2
999.237	569.8
999.621	589.4
1000.01	594
1000.39	572.8
1000.8	572.6
1001.18	582.4
1001.56	579.6
1001.95	580.6
1002.33	581.6
1002.72	580.6
1003.13	577.4
1003.51	573.8
1003.9	573.6
1004.28	595
1004.67	571.8
1005.06	577.6
1005.44	614.4
1005.83	575
1006.21	575
1006.6	573.8
1006.99	572.8
1007.37	587.4
1007.76	578
1060.12	569.4
1060.51	570.6
1060.89	577.8
1061.28	584.4
1061.67	589.4
1062.06	582.4
1062.45	578.6
1062.83	568.8
1063.22	582.2
1063.61	619.6
1064	584
1064.39	572.2
1064.78	578
1065.14	585.6
1065.53	577.8
1065.92	572
1066.31	562.2
1066.7	583.8
1067.09	583
1067.46	584.2
1067.85	575.6
1068.24	572
1068.63	578.4
1069.02	569.8
1069.39	582
1069.78	565.6
1070.17	578.2
1070.57	561.8
1070.93	571.6
1071.33	569.2
1071.72	573.6
1072.11	569
1072.48	565.2
1072.87	571.6
1073.26	577.2
1073.64	568.6
1074.03	564.4
1074.4	576
1074.79	573
1075.19	579.2
1075.56	579.8
1075.95	578.2
1076.34	570.8
1076.72	561.6
1077.11	579.6
1077.48	590.6
1077.88	580.8
1078.25	573.4
1078.64	584.2
1079.02	585.2
1079.41	581.6
1079.78	575.4
1080.18	568.6
1080.55	633.2
1080.95	561.4
1081.32	560.4
1081.72	576.4
1082.09	567.8
1082.49	565.8
1082.86	583.4
1083.24	567.4
1083.63	562.6
1084.01	568.2
1084.38	581.2
1084.78	564
1085.16	579.4
1085.55	595.8
1085.93	594.6
1086.31	564.4
1086.7	601.8
1087.08	584
1087.46	576.2
1087.83	564.8
1088.23	574.8
1088.61	567.2
1088.99	585
1089.36	567.8
1089.76	579.4
1090.14	569
1090.52	572.8
1090.9	562
1091.27	589
1091.67	602.2
1092.05	583.4
1092.43	568.8
1092.81	582
1093.19	575.4
1093.57	567
1093.95	572.8
1094.35	579.4
1094.73	576.2
1095.11	574.4
1095.49	569
1095.87	571.2
1096.25	584.2
1096.63	586.4
1097.01	568.8
1097.39	577.6
1097.77	572.8
1098.15	582.4
1098.53	573.4
1098.91	574.2
1099.29	580
1099.68	584.4
1100.06	573.4
1100.44	575.8
1100.82	576.6
1101.18	576
1101.56	574.4
1101.95	580.4
1102.33	576.8
1102.71	576.8
1103.1	568.2
1103.48	562.8
1103.86	562.2
1104.22	577.6
1104.61	577.8
1104.99	574.6
1105.38	570.2
1105.76	577.8
1106.12	572.6
1106.51	603.6
1106.89	583.2
1107.26	572.4
1107.64	579.6
1108.03	574.4
1108.41	579.6
1108.78	571
1109.16	572.4
1109.55	587.8
1109.91	566.6
1110.3	557
1110.69	582.4
1111.05	572.6
1111.44	579.4
1111.8	567.8
1112.19	578
1112.58	574.2
1112.94	564.8
1113.33	567.8
1113.7	565.2
1114.09	575.2
1114.45	576
1114.84	570.4
1115.21	576.8
1115.6	562.6
1115.96	573.2
1116.35	579.4
1116.72	570.8
1117.11	586.2
1117.48	573
1117.85	577
1118.24	584.2
1118.6	574.2
1118.99	568.4
1119.36	571.2
1119.73	573.8
1120.12	575
1120.49	563.2
1120.86	583.2
1121.25	565.8
1121.62	567.2
1121.99	568
1122.38	577
1122.76	567.2
1123.13	569.4
1123.5	573.8
1123.89	581.6
1124.26	567
1124.63	574.2
1125	565
1125.4	562.4
1125.77	560.6
1126.14	557.6
1126.51	564.2
1126.88	577.2
1127.26	568.8
1127.63	558.4
1128.02	572.2
1128.4	567
1128.77	572.2
1129.14	566.2
1129.52	571.2
1129.89	580
1130.26	554.4
1130.64	557.8
1131.01	565.2
