#lambda/nm	C1
208.295	507.8
208.67	459.4
209.045	426.4
209.419	425.4
209.794	611.8
210.169	600.4
210.544	713.4
210.919	608.6
211.295	604
211.67	618.6
212.045	604
212.421	613.8
212.796	649.6
213.172	605.4
213.547	610.2
213.923	603.2
214.299	604
214.675	612
215.051	619.4
215.427	621.6
215.803	631.4
216.179	619.4
216.555	605
216.932	627
217.308	611.2
217.684	616.8
218.061	611.8
218.438	611.6
218.814	610
219.191	618
219.568	595.8
219.945	605.8
220.322	611.4
220.699	611.6
221.076	616
221.453	618.2
221.83	604.8
222.208	609.8
222.585	610.4
222.962	617.8
223.34	612
223.717	616.4
224.095	612.8
224.473	612.2
224.851	610.6
225.229	607
225.607	626.6
225.985	599.8
226.363	619.6
226.741	616.4
227.119	611.4
227.497	634.2
227.876	599.6
228.254	621.6
228.633	614.2
229.011	614.4
229.39	620.8
229.769	624.8
230.148	622.4
230.527	642.4
230.905	605.2
231.284	612.6
231.664	612.8
232.043	624
232.422	624.2
232.801	605.4
233.181	613
233.56	618.4
233.94	618.2
234.319	599.4
234.699	611.8
235.079	656.6
235.458	647.2
235.838	640.4
236.218	603.6
236.598	610
236.978	609.2
237.358	608
237.738	606.4
238.119	612
238.499	596.6
238.88	611.6
239.26	629
239.641	595.6
240.021	602.2
240.402	607.8
240.783	608.2
241.163	607.2
241.544	614.4
241.925	614.6
242.306	620.8
242.687	620
243.069	616.2
243.45	609.2
243.831	600.2
244.212	610.6
244.594	652.6
244.975	617.8
245.357	621.6
245.739	605.8
246.12	616.6
246.502	628.2
246.884	617.6
247.266	609.2
247.648	617.4
248.03	637.4
248.412	611.6
248.794	621.6
249.176	610.6
249.559	623.2
249.941	601.8
250.323	603.8
250.706	611
251.089	614.8
251.471	617.6
251.854	614.8
252.237	617.2
252.62	620.2
253.002	615.8
253.385	616.2
253.769	628
254.152	612.8
254.535	619
254.918	612.4
255.301	617
255.685	608.2
256.068	610.6
256.452	634.8
256.835	628.8
257.219	615.6
257.603	623.6
257.986	608.2
258.37	620.4
258.754	597.6
259.138	624.8
259.522	629.2
259.906	609.8
260.29	622.8
260.675	618.2
261.059	616.6
261.443	604.4
261.828	614.4
262.212	617.4
262.597	597.2
262.981	605.6
263.366	627.8
263.751	613.6
264.136	607.8
264.521	611.4
264.906	599
265.291	621.4
265.676	608.6
266.061	620
266.446	631
266.831	610.6
267.217	634.8
267.602	612.6
267.987	624.8
268.373	618.4
268.759	624.4
269.144	618.8
269.53	613.6
269.916	612.6
270.302	618.2
270.688	623.4
271.074	625
271.46	626.8
271.846	637.4
272.232	621
272.618	614
273.004	612.4
273.391	630.4
273.777	635.8
274.164	619
274.55	631.8
274.937	610.2
275.324	611
275.71	626.2
276.097	617.6
276.484	610.2
276.871	622.2
277.258	621
277.645	601.8
278.032	622.6
278.419	611.6
278.807	619.2
279.194	618.4
279.581	618.4
279.969	626.4
280.356	621.4
280.744	606.6
281.131	641.4
281.519	628.2
281.907	615.4
282.295	611.2
282.682	628.8
283.07	622.6
283.458	625.4
283.846	614.8
284.235	629.2
284.623	625.2
285.011	604.2
285.399	620.8
285.788	615.4
286.176	605.6
286.565	624
286.953	612.4
287.342	615
287.731	603.8
288.119	612.4
288.508	608.6
288.897	613.4
289.286	607.2
289.675	618.6
290.064	626.2
290.453	617.4
290.821	607.8
291.21	632.6
291.599	612.2
291.989	613.2
292.378	615
292.768	637
293.157	623.4
293.547	613
293.936	613.6
294.326	606.8
294.716	616.2
295.106	614.8
295.496	624.6
295.886	634
296.276	614.6
296.666	614.4
297.056	607.8
297.446	604.2
297.836	635.2
298.227	610.2
298.617	619.8
299.008	625.6
299.398	603.6
299.789	607.8
300.179	621
300.57	627.6
300.961	614.8
301.352	618.2
301.742	615.2
302.133	624.6
302.524	613.8
302.915	621.6
303.307	602.6
303.698	629.2
304.089	625.6
304.48	609.8
304.872	620.2
305.263	608.8
305.655	606
306.046	616.4
306.438	620.4
306.829	604.6
307.221	625.6
307.613	617.8
308.005	626.6
308.397	628
308.789	638.2
309.181	636.2
309.573	625.8
309.965	626.8
310.357	609.2
310.749	633.2
311.142	606.2
311.534	617
311.926	617.6
312.319	616.2
312.711	605.2
313.104	624.4
313.497	621
313.889	651
314.282	631.4
314.675	631.2
315.068	617.2
315.461	624.8
315.854	649.4
316.247	623.2
316.64	615.2
317.033	610
317.405	628.4
317.798	621.8
318.192	611.2
318.585	608.6
318.979	615.2
319.372	609.2
319.766	621.8
320.16	619.6
320.553	627
320.947	632.4
321.341	616.6
321.735	613.6
322.129	604.4
322.523	646
322.917	608.4
323.311	627
323.705	631
324.099	623.6
324.494	624.6
324.888	629.4
325.282	615.8
325.677	624.2
326.071	621.8
326.466	632.8
326.861	622.8
327.255	629.4
327.65	634.8
328.045	629.2
328.44	627.2
328.835	616.2
329.23	619.2
329.625	644.2
330.02	611.8
330.415	632
330.81	616.6
331.206	625.4
331.601	609.8
331.996	627.2
332.37	643.6
332.766	608.8
333.161	635.8
333.557	613.8
333.953	616.8
334.348	943.8
334.744	617.8
335.14	616.2
335.536	610
335.932	630.2
336.328	613.8
336.724	624
337.12	610.6
337.516	616.6
337.913	612
338.309	628.4
338.705	614.8
339.102	614.8
339.498	614
339.895	628.8
340.291	612.4
340.688	621.4
341.085	606.6
341.481	606
341.878	613
342.275	630.8
342.672	605.8
343.069	609
343.466	603
343.842	624.2
344.239	612.4
344.636	607.2
345.033	609.8
345.431	604.6
345.828	619.8
346.225	596.8
346.623	649.6
347.02	623.8
347.418	623
347.816	622.4
348.213	608.4
348.611	617.4
349.009	610
349.407	623.8
349.805	608.6
350.203	602.8
350.601	629.2
350.999	607.8
351.397	659
351.795	612
352.193	621.8
352.57	622
352.969	625.2
353.367	599.4
353.766	605
354.164	613.4
354.563	618
354.961	614
355.36	607.6
355.759	615.8
356.158	605.2
356.557	607.8
356.956	602.4
357.355	600.8
357.754	622.2
358.153	622.8
358.552	639.6
358.951	611
359.35	622.8
359.75	610.6
360.149	598.4
360.527	595.6
360.926	597.2
361.326	611.4
361.726	601.8
362.125	600.2
362.525	613.8
362.925	609.2
363.325	613.8
363.724	610.2
364.124	598.2
364.524	600.8
364.924	612.6
365.324	624.6
365.725	592.6
366.125	612.8
366.525	609.4
366.904	601.4
367.304	587.6
367.705	625.6
368.105	619.4
368.506	611
368.906	615.2
369.307	607.6
369.708	616.8
370.108	598.8
370.509	629
370.91	595.8
371.311	605.4
371.712	611
372.113	611.6
372.514	593.4
372.894	612.2
373.295	605.8
373.696	615
374.097	611.6
374.499	635
374.9	610
375.301	603.6
375.703	611.2
376.105	599
376.506	609
376.908	614.8
377.309	620
377.711	604.6
378.113	608.4
378.493	606.8
378.895	601.2
379.297	623
379.699	582
380.102	613.2
380.504	615.8
380.906	600.8
381.308	636
381.71	608.8
382.113	612.4
382.515	605.8
382.918	612.6
383.299	606.2
383.701	617.8
384.104	602.6
384.507	588
384.909	602.2
385.312	597
385.715	594.6
386.118	608.2
386.521	599.4
386.924	611
387.327	606
387.709	601.6
388.112	587
388.515	603.4
388.918	600.2
389.322	616.4
389.725	602.4
390.129	629
390.532	607.4
390.936	607.8
391.339	602.2
391.743	616.2
392.125	595.4
392.529	613.4
392.933	621.6
393.337	609
393.74	605.4
394.144	601.2
394.548	601.2
394.953	595.6
395.357	608.6
395.761	609.4
396.144	606.2
396.548	600.6
396.952	604.8
397.357	603.6
397.761	598.4
398.166	602.4
398.57	612.2
398.975	605.2
399.379	606.2
399.763	656.4
400.168	602
400.572	606.2
400.977	610
401.382	618
401.787	604
402.192	618.8
402.597	617
403.002	591.6
403.386	618.2
403.791	616.4
404.197	596.6
404.602	605.4
405.007	615.2
405.413	597.6
405.818	604.8
406.224	601.2
406.608	603.4
407.014	595.4
407.42	622.4
407.825	607.8
408.231	607.8
408.637	617.4
409.043	623.4
409.449	602.2
409.834	593.8
410.24	608.4
410.646	626.2
411.052	613
411.458	619.8
411.865	607.4
412.271	618.2
412.677	613.6
413.062	617.2
413.469	602.4
413.875	639
414.282	615.8
414.689	611.6
415.095	603
415.502	602.2
415.888	602.8
416.294	591.4
416.701	644.4
417.108	602
417.515	612.6
417.923	610.4
418.33	620.6
418.715	616.4
419.123	602.8
419.53	604.2
419.937	607
420.345	621.6
420.752	602
421.16	629.4
421.546	604
421.953	621.8
422.361	594.6
422.769	606
423.177	601.8
423.585	626.4
423.992	623.6
424.379	618.2
424.787	618.2
425.195	637
425.603	609.6
426.011	625.8
426.419	619.8
426.806	605
427.214	618.8
427.623	619.6
428.031	628.8
428.44	612.8
428.848	625.6
429.235	634.6
429.644	614.6
430.053	612
430.461	637
430.87	643.8
431.279	627
431.666	609.6
432.075	616.2
432.484	621
432.893	613.4
433.302	643
433.711	660.8
434.099	625.6
434.508	620
434.918	613.2
435.327	636.4
435.737	644.4
436.125	642.8
436.534	647.8
436.944	650.6
437.353	657.8
437.763	678.6
438.173	652.6
438.561	678.6
438.971	647.6
439.381	677.4
439.791	674.4
440.201	672.6
440.589	687.2
440.999	695.8
441.409	700
441.819	688
442.23	714.4
442.619	714.8
443.029	718.6
443.439	716.2
443.85	736.6
444.26	744
444.649	743
445.06	747.8
445.471	734.6
445.881	741
446.292	764.4
446.682	763
447.092	730.2
447.503	803
447.914	745.6
448.325	761
448.715	762
449.126	753.2
449.537	753.2
449.948	765.2
450.338	768.4
450.75	770
451.161	777.8
451.572	784.6
451.984	767.4
452.374	757.6
452.786	761.6
453.197	774.8
453.609	776
453.999	763.6
454.411	774.6
454.823	789.8
455.235	786.4
455.647	769.2
456.037	775
456.449	759.4
456.862	771.6
457.274	783.6
457.665	768.4
458.077	780
458.489	809
458.902	775.4
459.293	771.6
459.705	777.2
460.118	773.6
460.53	778.8
460.921	785.2
461.334	782
461.747	786.4
462.16	794.6
462.551	795.6
462.964	797.6
463.377	782.2
463.79	776.6
464.182	798.8
464.595	770.6
465.008	781.6
465.421	787.8
465.813	784.6
466.226	786.8
466.64	787
467.053	827.8
467.445	786.2
467.859	814.2
468.272	790.2
468.686	795.4
469.078	779.2
469.492	792.6
469.906	786.6
470.298	796
470.712	784.2
471.126	836.8
471.54	776.4
471.933	781.8
472.347	773
472.761	780.8
473.175	780.4
473.568	783.6
473.982	773
474.397	778.4
474.79	774
475.204	785.2
475.619	793.4
476.033	777.6
476.426	777.8
476.841	766
477.256	801.6
477.649	770.8
478.064	770.2
478.479	774
478.872	771
479.287	763.2
479.702	768.2
480.118	769.2
480.511	775.8
480.927	777.2
481.342	760.4
481.736	770
482.151	761.6
482.566	778.4
482.96	767.8
483.376	781.2
483.792	766.2
484.186	765
484.602	763.6
485.017	762.6
485.412	773.8
485.827	767.2
486.243	761.8
486.638	771.8
487.054	767.2
487.47	777.4
487.865	764.8
488.281	757.8
488.697	746
489.092	755.6
489.508	749.2
489.925	760.4
490.32	733.6
490.736	760.8
491.153	747.2
491.548	757
491.964	759.4
492.381	732.6
492.776	753.2
493.193	747.4
493.61	750.8
494.006	737.8
494.422	746
494.84	739.4
495.235	755.6
495.652	740
496.069	736.2
496.465	732.2
496.883	737.4
497.3	763.4
497.696	728.8
498.113	737.6
498.509	716
498.927	711.8
499.344	720
499.741	713.2
500.158	733.2
500.576	735.4
500.973	730.4
501.39	713.8
501.787	712.6
502.205	729.6
502.623	717.4
503.02	706.4
503.438	710.6
503.856	715.8
504.253	716.8
504.671	719.2
505.068	698.6
505.486	710.6
505.905	728.8
506.302	711
506.72	720.2
507.118	708.8
507.536	705.4
507.955	713
508.352	706.8
508.771	704
509.169	712.6
509.587	693.4
510.006	706.2
510.404	683.6
510.823	699.2
511.221	690
511.64	691.6
512.038	707.2
512.457	691
512.877	693
513.275	693.6
513.694	697.6
514.092	695.8
514.512	698.2
514.91	698.8
515.33	692
515.749	682.4
516.148	693.2
516.568	690.4
516.966	680.8
517.386	669.4
517.785	686.6
518.205	687.4
518.603	674
519.024	674.8
519.444	687.8
519.843	684.2
520.263	690.2
520.662	687.6
521.082	680.6
521.481	693.4
521.902	668.6
522.301	686.4
522.722	677
523.121	682
523.542	679
523.963	684
524.362	679.4
524.783	680.4
525.183	679.2
525.604	673.4
526.003	660.8
526.425	661.4
526.824	684.2
527.246	672
527.646	671.2
528.067	665.4
528.467	670.2
528.888	672.2
529.289	657.6
529.71	659.2
530.11	657.8
530.532	655.2
530.932	655.2
531.354	647.4
531.755	694.2
532.176	666.8
532.577	646.4
532.999	658.6
533.4	649
533.822	661.4
534.223	673.2
534.645	653.4
535.046	658.8
535.468	654.8
535.869	666
536.292	644.8
536.693	683
537.115	654.8
537.516	642.2
537.939	639.6
538.34	669
538.742	665.6
539.165	657
539.566	651.6
539.989	642
540.391	644.6
540.814	647.2
541.216	649.6
541.639	651.8
542.041	652.8
542.464	646
542.866	645.6
543.268	639
543.691	655.6
544.093	656.2
544.517	666.8
544.919	633.4
545.343	673.8
545.745	638.2
546.147	648.2
546.571	652.6
546.974	633
547.398	644.4
547.8	659.2
548.224	636.8
548.627	633.6
549.03	647.2
549.454	637
549.857	632.6
550.281	642.4
550.684	636.6
551.087	646.2
551.512	641.8
551.915	643.6
552.34	629.4
552.743	631
553.146	636.4
553.571	623
553.975	654.8
554.399	629.4
554.803	675.2
555.207	637.4
555.632	624.4
556.036	641.2
556.461	627.8
556.865	632
557.268	622.4
557.694	625.6
558.098	637.8
558.502	633.8
558.927	628.8
559.332	633.6
559.736	625
560.162	632.4
560.566	624.6
560.992	628.6
561.396	636.8
561.801	632.2
562.227	629.6
562.631	625.8
563.036	627.8
563.462	630.6
563.867	632
564.272	614.4
564.698	639.8
565.103	612.6
565.508	654.4
565.935	621.2
566.34	631.8
566.745	631.6
567.172	616.2
567.577	637.6
567.982	636.2
568.409	631.2
568.815	609.8
569.22	628.4
569.626	626.4
570.053	608.8
570.459	626.6
570.865	626.4
571.292	627.6
571.698	620.4
572.104	597.8
572.531	613.4
572.937	629.8
573.343	622
573.75	627.2
574.177	618.4
574.583	625.8
574.99	619.8
575.396	621.2
575.824	611.4
576.231	623.6
576.637	604.2
577.065	642.2
577.472	615.6
577.879	619
578.286	628.4
578.714	607.6
579.121	613.2
579.528	624.4
579.935	619.8
580.364	609.8
580.771	596.8
581.178	602.6
581.585	622.6
582.014	624
582.421	604.4
582.829	602.8
583.236	617.2
583.644	612.6
584.073	602.4
584.481	612.4
584.889	608.4
585.296	620
585.726	606.4
586.134	605.6
586.542	609.2
586.95	627.8
587.358	602.6
587.787	609.2
588.196	630.6
588.604	612
589.012	613.4
589.421	602.8
589.851	600.6
590.259	612.4
590.668	606
591.076	640
591.485	601.4
591.894	615.6
592.324	616.2
592.733	614.8
593.142	590.4
593.551	604
593.96	636.4
594.369	597.6
594.8	595
595.209	601.8
595.618	583.6
596.028	594.4
596.437	585
596.847	611.8
597.256	593.2
597.687	606
598.097	603
598.507	588.6
598.917	598.2
599.327	607.8
599.736	602.6
600.146	608.2
600.556	602.8
600.988	609
601.398	593.4
601.808	606.4
602.219	589
602.629	597.8
603.039	603.8
603.45	629
603.86	599.4
604.271	611.6
604.703	602
605.114	596.6
605.525	597.4
605.935	597.6
606.346	622.4
606.757	606.8
607.168	594.6
607.579	592.6
607.99	613.6
608.402	594
608.813	596.8
609.224	590.8
609.636	593.6
610.047	593.6
610.48	596
610.892	610
611.303	611.8
611.715	590.4
612.127	587.2
612.539	597.2
612.95	588.2
613.362	587.6
613.774	587
614.186	587.6
614.599	597.4
615.011	599
615.423	591
615.835	592.6
616.248	587
616.66	599.8
617.073	590.6
617.485	599.6
617.898	601.6
618.311	606.4
618.723	586.4
619.136	624.4
619.549	606.6
619.962	613.8
620.375	592.4
620.788	599
621.201	588.2
621.614	601.6
622.028	594.4
622.441	601.2
622.854	611.2
623.268	586.2
623.681	596
624.095	596.8
624.509	612.6
624.922	607.2
625.336	581.8
625.728	592.2
626.142	609
626.556	616.4
626.97	593.2
627.384	588.4
627.799	592.4
628.213	600.2
628.627	590.2
629.041	585.6
629.456	588
629.87	591.8
630.285	603.6
630.699	604
631.093	591.6
631.507	598.8
631.922	594.6
632.337	595.8
632.752	586.4
633.167	594.4
633.582	590.8
633.997	591.8
634.412	590.4
634.806	598
635.221	587.4
635.637	604.6
636.052	588.6
636.468	600
636.883	613.2
637.299	595.8
637.715	583.6
638.109	595.4
638.525	588
638.941	612.4
639.357	599.6
639.773	603.2
640.189	591.6
640.584	600.2
641	590.2
641.416	574
641.832	586.2
642.249	589
642.665	580
643.06	598.6
643.477	594.6
643.894	578.6
644.31	596.4
644.727	597.2
645.123	589.2
645.54	583.6
645.957	589.6
646.374	600.2
646.77	597.2
647.187	622.4
647.604	582.6
648.021	584.8
648.439	587.4
648.835	589.8
649.252	592
649.67	583.4
650.088	595
650.484	594.2
650.902	585
651.32	600.2
651.738	587.6
652.134	599.2
652.552	611
652.971	595.8
653.389	589.8
653.786	607.6
654.204	610.2
654.622	585
655.019	592.2
655.438	595.4
655.857	594.4
656.275	596
656.673	586.2
657.091	602.6
657.51	585.8
657.908	596.4
658.327	606.4
658.746	584.2
659.144	587.6
659.563	600.2
659.982	602.6
660.38	580.2
660.8	597
661.219	594.2
661.617	601.8
662.037	588.8
662.457	606.4
662.855	585.4
663.275	624.6
663.695	592.2
664.094	588.2
664.514	602.4
664.934	585.2
665.333	595
665.753	590.6
666.152	583.4
666.572	582.4
666.993	589.8
667.392	590.4
667.812	585.4
668.212	580.6
668.632	600
669.053	585.6
669.453	594.6
669.874	579.4
670.273	593.6
670.694	585.2
671.116	601
671.515	599.6
671.937	592
672.337	577.6
672.758	592.8
673.158	600.4
673.58	583.6
673.98	597.2
674.402	600
674.824	593.4
675.224	584.6
675.646	580.4
676.047	588.4
676.469	593.8
676.869	592.6
677.292	593.2
677.693	576.2
678.115	586.2
678.516	593.2
678.939	586.8
679.34	585
679.762	598
680.164	593.4
680.586	586.4
680.988	585.6
681.411	605.2
681.812	579.6
682.236	579.2
682.637	578.8
683.061	578.8
683.462	593.4
683.864	592.4
684.288	599
684.69	575.4
685.114	601.2
685.516	596.6
685.94	574.4
686.342	595.8
686.766	575.2
687.168	574.8
687.571	600.4
687.995	586.6
688.398	582.8
688.822	586.6
689.225	597.2
689.628	599.8
690.052	590.4
690.456	602.4
690.88	591
691.284	570.4
691.687	592.4
692.112	574
692.515	583.4
692.919	586.2
693.344	590.4
693.747	582.6
694.173	578.6
694.577	595
694.98	577
695.406	577.6
695.81	587.6
696.214	592.4
696.64	594.8
697.044	591.2
697.448	597.6
697.874	588.8
698.279	587.8
698.684	577.8
699.11	582.6
699.514	580.4
699.919	584.4
700.324	572.2
700.75	592
701.156	586
701.561	592.8
701.987	597
702.393	596.4
702.798	605.4
703.203	588.8
703.63	587.4
704.036	585.6
704.442	595
704.847	570
705.274	581
705.68	587
706.086	594
706.492	571.4
706.92	585.4
707.326	602.4
707.732	579.4
708.139	571.4
708.545	581.8
708.973	576
709.38	587.6
709.786	576.6
710.193	594.8
710.6	591.8
711.028	576.8
711.435	581
711.842	580.2
712.249	594.6
712.656	580.6
713.064	587.6
713.492	576.8
713.9	585.6
714.307	594.8
714.715	588.6
715.123	585.6
715.53	592.8
715.938	594.4
716.367	592.4
716.775	588
717.184	578.8
717.592	578.4
718	591.2
718.408	626.6
718.816	634.6
719.225	588.8
719.633	584.8
720.042	570.6
720.472	582.2
720.881	599.6
721.29	584.2
721.699	576
722.108	593.2
722.517	580.2
722.926	579.8
723.335	601.2
723.744	579.6
724.154	584.2
724.563	583.6
724.973	587.8
725.382	582.4
725.792	586.4
726.202	567
726.612	609.6
727.022	576
727.432	586.2
779.813	579.2
780.223	627.8
780.634	585.8
781.044	576.8
781.454	583.8
781.865	599.4
782.276	578.4
782.686	589.8
783.097	585.6
783.508	580.8
783.919	587.8
784.33	589.8
784.741	591
785.152	574.2
785.563	577.4
785.974	575.4
786.386	588.2
786.776	583.8
787.188	581.2
787.599	569.2
788.011	597.8
788.423	590
788.835	578.4
789.247	575.2
789.659	575.6
790.071	575.2
790.483	628.6
790.874	580.2
791.286	588
791.699	579.4
792.111	581.2
792.524	588.6
792.937	585
793.349	581.4
793.741	574.4
794.154	578.4
794.567	604.2
794.98	583.2
795.393	566.8
795.785	588.4
796.198	577.2
796.612	587.2
797.026	584.2
797.439	575
797.831	577.4
798.245	579
798.659	580.4
799.073	585.2
799.487	576.8
799.88	579
800.294	582.8
800.708	587.2
801.123	579.2
801.516	593.2
801.93	571.2
802.345	567.6
802.76	580.4
803.153	592.6
803.568	597
803.983	591.2
804.377	581.4
804.792	581
805.207	564.2
805.601	581.4
806.016	615
806.432	571.6
806.826	616.6
807.242	597.4
807.658	581
808.052	577.2
808.468	580.8
808.884	579.4
809.279	581.2
809.695	599.8
810.111	605.8
810.506	588.8
810.922	602
811.339	578.4
811.734	591.4
812.151	576.8
812.546	577.4
812.963	578.6
813.38	592
813.776	587.6
814.193	608.4
814.589	577.6
815.006	577
815.402	577.6
815.82	577
816.237	576
816.633	582.6
817.051	572.8
817.448	583.4
817.866	573.4
818.262	600.4
818.68	575.4
819.077	574.4
819.495	576
819.892	622.2
820.311	578.6
820.708	571.8
821.127	581.2
821.524	602.4
821.943	593.4
822.34	601.2
822.759	583.2
823.157	589.4
823.576	597
823.974	589.6
824.393	597
824.791	585
825.189	580.4
825.609	582.6
826.007	583.2
826.427	564.6
826.826	572.8
827.246	583.2
827.644	571
828.043	590.8
828.463	577.6
828.862	586.2
829.261	590
829.682	576.4
830.081	583.6
830.502	572.4
830.901	589.2
831.301	598.4
831.722	571.6
832.121	580
832.521	577
832.943	574.8
833.342	589.6
833.742	573.6
834.164	582
834.564	572.2
834.965	584.2
835.386	590.6
835.787	578.6
836.188	585.8
836.588	583
837.01	579.6
837.411	583
837.812	582.4
838.213	581
838.636	576
839.037	650.6
839.438	572.4
839.84	581.8
840.263	583.2
840.664	580.2
841.066	567.8
841.468	580.2
841.891	569.4
842.293	581.2
842.695	578.6
843.098	591.4
843.5	578.4
843.902	581.6
844.326	577.8
844.729	580.4
845.131	593
845.534	576
845.937	594.8
846.34	603.8
846.764	579
847.167	578.2
847.571	575.2
847.974	575
848.377	579.2
848.781	629.4
849.184	588.2
849.588	572.4
849.992	579
850.396	598.2
850.821	595.4
851.225	581
851.63	578.6
852.034	597.4
852.438	573.6
852.843	650.2
853.247	571.2
853.652	580
854.057	601.8
854.462	582
854.867	586.4
855.272	615
855.677	576.4
856.082	564.8
856.487	572.2
856.893	571.6
857.298	576.2
857.704	579.2
858.11	585.6
858.516	591.8
858.922	584.6
859.328	577.6
859.734	585
860.14	579.8
860.525	579
860.931	579.6
861.338	577
861.745	582
862.151	573.8
862.558	579.2
862.965	583.8
863.372	565.6
863.779	588.6
864.186	608.8
864.572	583.6
864.98	598.6
865.387	613.2
865.795	571
866.203	582.8
866.61	569.4
867.018	583.4
867.405	588.2
867.813	573.2
868.221	578.6
868.63	574.6
869.038	586.2
869.425	619.2
869.834	582
870.243	573.2
870.652	582
871.039	570.4
871.448	572.4
871.857	590
872.266	576.2
872.654	583
873.064	576.4
873.473	581
873.883	572.8
874.271	567.2
874.681	587
875.091	568.8
875.48	588.4
875.89	599.4
876.3	570.2
876.689	571.2
877.1	577.8
877.51	585.8
877.9	590.6
878.31	572.8
878.721	615
879.111	578.2
879.522	567.4
879.933	566.4
880.323	570.2
880.734	576
881.125	581
881.536	570.2
881.948	565.4
882.338	580.2
882.75	589.2
883.141	580
883.553	581
883.944	614.4
884.356	597
884.769	579.6
885.16	579
885.573	575.8
885.964	573
886.377	576.8
886.768	566.4
887.181	576.2
887.573	571.4
887.987	581.8
888.378	586.4
888.792	579.4
889.184	625.6
889.598	569.2
889.99	579.4
890.383	574
890.797	573.8
891.19	587
891.604	573.8
891.997	559.2
892.411	569.8
892.805	569.6
893.198	566.2
893.613	573
894.006	581.2
894.421	574
894.815	576
895.209	571
895.624	618.6
896.018	600
896.412	579.2
896.828	571.4
897.222	587.4
897.617	573.4
898.033	591.2
898.427	583
898.822	586.4
899.239	568.4
899.634	565.8
900.029	588.2
900.424	570
900.841	566.6
901.236	581
901.632	580
902.027	636.4
902.445	581.8
902.841	582.2
903.237	579
903.633	595.2
904.05	580.8
904.447	577.8
904.843	594.6
905.24	577.6
905.636	567.6
906.033	582.8
906.451	588.2
906.848	574
907.246	581
907.643	584.2
908.04	575.8
908.438	594.6
908.835	582
909.254	579.6
909.652	580.8
910.05	585.4
910.448	575.2
910.846	573
911.244	568.2
911.643	569
912.041	580.4
912.44	592.8
912.839	566
913.237	574.6
913.636	566.8
914.035	589
914.434	577.4
914.834	589.8
915.233	590.8
915.633	578.8
916.032	575
916.432	567
916.832	584.2
917.232	576.6
917.632	572.2
918.032	582.6
918.432	571
918.833	586.4
919.233	581.6
919.634	560.8
920.035	588
920.436	567.8
920.837	584.4
921.238	572.2
921.639	571.6
922.019	582
922.42	581.4
922.822	585.8
923.224	582
923.625	571.8
924.027	581.6
924.429	595.8
924.81	582.6
925.212	580.8
925.615	582.2
926.017	576.2
926.42	586.6
926.801	582
927.204	580.8
927.607	584.4
928.01	592
928.413	581
928.795	570.8
929.199	572
929.602	581
930.006	571.6
930.388	566
930.792	576.8
931.196	573.6
931.579	606.4
931.983	561.6
932.388	624.4
932.771	567.8
933.176	564.6
933.58	580
933.964	582.6
934.369	559.8
934.774	578.4
935.158	572.8
935.563	584.6
935.947	575
936.353	575.4
936.759	574.4
937.143	575.4
937.549	572.2
937.934	587.6
938.34	590.2
938.746	565.8
939.131	572.8
939.538	567.6
939.923	580.6
940.33	567
940.716	575.2
941.123	573.6
941.508	579.6
941.916	601.2
942.302	578.8
942.709	565.8
943.096	567.2
943.503	582.8
943.89	573.8
944.298	569.6
944.685	598.8
945.072	574.8
945.48	586.6
945.867	571.6
946.276	566.6
946.663	598.2
947.051	595
947.46	584.8
947.848	566.4
948.257	576.2
948.645	571.6
949.033	570.4
949.443	567.8
949.831	610.4
950.22	564
950.63	579.6
951.018	602.2
951.407	577.6
951.796	567
952.207	574.2
952.596	585.2
952.985	571.6
953.375	623.4
953.786	577.2
954.176	568.2
954.566	578.2
954.956	563.8
955.367	573.2
955.758	594.4
956.148	569.6
956.539	578.8
956.929	563.2
957.341	567
957.732	573.2
958.123	583.6
958.515	565.8
958.906	578.6
959.297	566.6
959.689	575.6
960.102	573.4
960.494	582.6
960.886	569
961.278	569.8
961.67	596.6
962.062	611.6
962.455	571.4
962.847	563.2
963.24	564.8
963.633	570.6
964.026	568.8
964.419	570.2
964.812	577.6
965.206	572.8
965.599	576.4
965.993	570.8
966.386	568.6
966.78	579.4
967.174	577
967.569	568.4
967.963	566.2
968.357	560.8
968.752	572
969.146	567.2
969.541	559.8
969.936	581.8
970.331	581.8
970.705	574
971.1	567.8
971.496	585.8
971.892	566.8
972.287	581.2
972.683	573.4
973.079	581.8
973.454	586
973.85	568.4
974.247	580.8
974.643	592.2
975.04	583
975.415	578
975.812	563.6
976.209	582.8
976.607	572.6
976.982	584.2
977.38	595
977.778	583
978.175	569
978.552	579
978.95	587.8
979.348	582.8
979.725	619.8
980.123	571.4
980.522	577.2
980.899	572.4
981.298	579.4
981.697	580
982.075	576.6
982.474	568.8
982.852	582.4
983.251	579.8
983.651	574
984.029	584.4
984.429	570.4
984.808	574.8
985.208	570
985.609	569.2
985.987	558
986.388	572.4
986.768	573.6
987.168	573.2
987.548	583.2
987.949	589.2
988.329	580
988.731	567.2
989.111	579
989.491	567.4
989.893	573.6
990.273	578.8
990.676	570
991.057	567.4
991.459	572.6
991.84	579
992.221	565.2
992.624	593.2
993.006	577.2
993.388	584.4
993.791	581.8
994.173	577.8
994.576	607.4
994.959	559.6
995.341	573.6
995.724	576.8
996.128	573.6
996.511	569.4
996.894	571.8
997.298	579.6
997.681	576.6
998.065	565.2
998.448	569.2
998.854	587
999.237	572.4
999.621	575
1000.01	583.6
1000.39	581.8
1000.8	570.8
1001.18	582.2
1001.56	583.4
1001.95	576.2
1002.33	584.4
1002.72	572.6
1003.13	576.2
1003.51	567.4
1003.9	572.8
1004.28	596.6
1004.67	566
1005.06	569.8
1005.44	611
1005.83	570.4
1006.21	575
1006.6	565.2
1006.99	583.8
1007.37	585.6
1007.76	581.8
1060.12	569.2
1060.51	569.6
1060.89	580
1061.28	579
1061.67	578.2
1062.06	575.4
1062.45	575.4
1062.83	571.8
1063.22	568.6
1063.61	613.4
1064	577
1064.39	570.8
1064.78	569
1065.14	589.4
1065.53	578.6
1065.92	576.6
1066.31	564.4
1066.7	580.2
1067.09	582.4
1067.46	588.6
1067.85	577.8
1068.24	565.6
1068.63	583
1069.02	581.8
1069.39	578
1069.78	570.4
1070.17	573.4
1070.57	566.8
1070.93	574.2
1071.33	561.8
1071.72	574.4
1072.11	564.8
1072.48	575.4
1072.87	575.2
1073.26	576
1073.64	566.8
1074.03	561.6
1074.4	571.2
1074.79	573.4
1075.19	570.8
1075.56	578.4
1075.95	571.4
1076.34	563.2
1076.72	564.8
1077.11	579.2
1077.48	580.4
1077.88	574.4
1078.25	570.6
1078.64	580.4
1079.02	580.8
1079.41	574
1079.78	569.4
1080.18	568
1080.55	634.6
1080.95	560.8
1081.32	569.8
1081.72	576.8
1082.09	570.8
1082.49	572
1082.86	572.8
1083.24	568
1083.63	559.4
1084.01	569.2
1084.38	575.8
1084.78	563.2
1085.16	572
1085.55	586.2
1085.93	589.4
1086.31	564.4
1086.7	591.2
1087.08	572.4
1087.46	573
1087.83	565
1088.23	582
1088.61	564.6
1088.99	582.2
1089.36	574.8
1089.76	566.2
1090.14	575
1090.52	571.8
1090.9	568.2
1091.27	592.6
1091.67	596
1092.05	570.4
1092.43	561.8
1092.81	579.8
1093.19	570.8
1093.57	568
1093.95	571.8
1094.35	583.6
1094.73	583.6
1095.11	564.6
1095.49	567
1095.87	575.6
1096.25	588.6
1096.63	570.4
1097.01	565.8
1097.39	574.4
1097.77	565.8
1098.15	574.4
1098.53	562.2
1098.91	568
1099.29	570
1099.68	587.4
1100.06	579.2
1100.44	575.2
1100.82	571.8
1101.18	581
1101.56	569.8
1101.95	566.8
1102.33	566.8
1102.71	574.6
1103.1	559.8
1103.48	566.2
1103.86	558.6
1104.22	567.4
1104.61	567
1104.99	566.4
1105.38	562.8
1105.76	562.4
1106.12	561.2
1106.51	599
1106.89	576
1107.26	569.2
1107.64	575.4
1108.03	564.6
1108.41	569.2
1108.78	572.8
1109.16	575
1109.55	574.6
1109.91	552
1110.3	551.4
1110.69	582
1111.05	564.2
1111.44	571.4
1111.8	568.4
1112.19	576
1112.58	578.4
1112.94	568
1113.33	572
1113.7	565.4
1114.09	557.6
1114.45	562.8
1114.84	572.2
1115.21	572
1115.6	560.6
1115.96	569.8
1116.35	587.4
1116.72	566.2
1117.11	584.4
1117.48	568.4
1117.85	577.6
1118.24	578.8
1118.6	572.8
1118.99	567
1119.36	588
1119.73	567.2
1120.12	571.4
1120.49	556.8
1120.86	574.2
1121.25	577.2
1121.62	557.4
1121.99	574.6
1122.38	590.6
1122.76	570.4
1123.13	570.8
1123.5	566.2
1123.89	579.8
1124.26	561.6
1124.63	565.8
1125	577.6
1125.4	562.6
1125.77	561.4
1126.14	558.2
1126.51	559.8
1126.88	570
1127.26	570
1127.63	563.2
1128.02	573.2
1128.4	565.8
1128.77	573.4
1129.14	566
1129.52	574.4
1129.89	574.8
1130.26	565.4
1130.64	563.8
1131.01	572
