#lambda/nm	C1
208.295	506.2
208.67	463.6
209.045	431.2
209.419	433.2
209.794	615
210.169	597.8
210.544	716.2
210.919	623
211.295	606.2
211.67	612.2
212.045	609.6
212.421	612.6
212.796	658.8
213.172	605.2
213.547	603.2
213.923	610
214.299	603.6
214.675	619.2
215.051	623.8
215.427	615.4
215.803	631.4
216.179	623.6
216.555	611
216.932	624.6
217.308	620.4
217.684	616.4
218.061	621.4
218.438	618.2
218.814	611.2
219.191	624.6
219.568	601.8
219.945	608.6
220.322	617.4
220.699	608.4
221.076	617.2
221.453	623.8
221.83	613.4
222.208	605.2
222.585	600.2
222.962	609.2
223.34	618
223.717	611.8
224.095	606.4
224.473	615.4
224.851	609
225.229	604.8
225.607	624.8
225.985	610.4
226.363	618.8
226.741	621.2
227.119	613.4
227.497	626.2
227.876	600.6
228.254	615.8
228.633	620.4
229.011	615.4
229.39	614
229.769	617.2
230.148	626.2
230.527	638.2
230.905	618.6
231.284	625.2
231.664	610
232.043	621.2
232.422	619
232.801	606.6
233.181	624
233.56	618.2
233.94	612.4
234.319	598.6
234.699	617.4
235.079	651.4
235.458	654.2
235.838	640
236.218	599.4
236.598	609.2
236.978	606.8
237.358	609.2
237.738	606.2
238.119	615.2
238.499	602.8
238.88	603.2
239.26	629.2
239.641	598.2
240.021	615
240.402	609.6
240.783	614.6
241.163	615.2
241.544	621.6
241.925	616
242.306	627.2
242.687	618.4
243.069	607.4
243.45	625.2
243.831	609.2
244.212	613
244.594	648.2
244.975	629.6
245.357	620.4
245.739	607.8
246.12	617.2
246.502	633.2
246.884	605.2
247.266	618.6
247.648	618
248.03	640.8
248.412	610.4
248.794	611.4
249.176	612.8
249.559	620.8
249.941	599.4
250.323	599.6
250.706	596
251.089	611.2
251.471	613.4
251.854	605.2
252.237	602.8
252.62	610.6
253.002	604.6
253.385	610.6
253.769	628.8
254.152	619.2
254.535	620.8
254.918	607.4
255.301	612.4
255.685	612.2
256.068	605.4
256.452	639.4
256.835	630
257.219	620.6
257.603	621.8
257.986	607.4
258.37	627.8
258.754	613.6
259.138	627.2
259.522	630.8
259.906	607.8
260.29	614.8
260.675	618.4
261.059	615.8
261.443	609.8
261.828	622
262.212	619.6
262.597	612
262.981	610.6
263.366	620.8
263.751	619
264.136	609.2
264.521	608
264.906	622
265.291	622
265.676	608
266.061	621.4
266.446	627.8
266.831	617.2
267.217	635.6
267.602	618.4
267.987	617.6
268.373	615.8
268.759	623.4
269.144	620.8
269.53	616.8
269.916	612.2
270.302	609
270.688	627.8
271.074	617.6
271.46	634.6
271.846	646.8
272.232	612.6
272.618	606.4
273.004	613.4
273.391	626.8
273.777	628.2
274.164	616.6
274.55	631.2
274.937	613
275.324	611.4
275.71	618.6
276.097	623.4
276.484	611.6
276.871	615.4
277.258	623.2
277.645	601.2
278.032	607.2
278.419	603.2
278.807	623.6
279.194	612
279.581	613
279.969	615
280.356	616.6
280.744	619.8
281.131	640
281.519	626.2
281.907	604.8
282.295	612.4
282.682	623
283.07	618.8
283.458	624.2
283.846	632
284.235	629
284.623	626.6
285.011	614.6
285.399	621.6
285.788	618.2
286.176	608.6
286.565	629
286.953	606.8
287.342	618.2
287.731	612.8
288.119	612
288.508	614.4
288.897	618
289.286	607
289.675	609.2
290.064	626
290.453	606.2
290.821	622.6
291.21	631
291.599	610
291.989	625.2
292.378	621.2
292.768	634.4
293.157	625.2
293.547	621.4
293.936	616.8
294.326	613.8
294.716	614
295.106	606.8
295.496	617.8
295.886	620.4
296.276	614
296.666	606.2
297.056	617.2
297.446	605.6
297.836	630.2
298.227	607.8
298.617	615
299.008	623.2
299.398	608
299.789	610.2
300.179	620
300.57	628.2
300.961	613.4
301.352	608.2
301.742	632
302.133	612
302.524	613.4
302.915	625.2
303.307	612.6
303.698	624
304.089	623
304.48	624.6
304.872	619.8
305.263	618.8
305.655	613.6
306.046	627.8
306.438	624.2
306.829	606.4
307.221	629
307.613	626
308.005	624.6
308.397	628.8
308.789	638
309.181	641.8
309.573	634.4
309.965	628.2
310.357	617.8
310.749	635
311.142	607.6
311.534	608
311.926	629.2
312.319	621.4
312.711	609.8
313.104	627.6
313.497	624.4
313.889	656.4
314.282	645.6
314.675	637.8
315.068	621.8
315.461	619.8
315.854	655
316.247	622.6
316.64	616.6
317.033	616
317.405	632
317.798	619
318.192	621.8
318.585	607
318.979	628.6
319.372	607.4
319.766	607.4
320.16	626.6
320.553	635.2
320.947	636.6
321.341	614.6
321.735	619.8
322.129	609.8
322.523	642
322.917	599.6
323.311	628.2
323.705	622
324.099	624
324.494	622.2
324.888	628.8
325.282	624.6
325.677	631
326.071	629
326.466	624.8
326.861	623.6
327.255	633.4
327.65	632.6
328.045	632.2
328.44	618.4
328.835	616
329.23	620
329.625	635.2
330.02	609.6
330.415	642
330.81	623
331.206	619.4
331.601	615.8
331.996	629.4
332.37	640.8
332.766	603.6
333.161	644.2
333.557	615.4
333.953	620.6
334.348	902.4
334.744	615.4
335.14	603.8
335.536	615.2
335.932	629.8
336.328	615.6
336.724	627.8
337.12	614.6
337.516	610.6
337.913	618.6
338.309	617.6
338.705	612.6
339.102	622.8
339.498	617.6
339.895	624.8
340.291	616.2
340.688	626.4
341.085	604.8
341.481	613.2
341.878	607.6
342.275	636.8
342.672	607.4
343.069	604
343.466	601.4
343.842	625.6
344.239	606.2
344.636	620.2
345.033	606.2
345.431	609.8
345.828	606
346.225	605.2
346.623	653.4
347.02	613.6
347.418	613
347.816	627.4
348.213	611
348.611	611.8
349.009	610.4
349.407	615.2
349.805	600.6
350.203	600.4
350.601	606.4
350.999	604.8
351.397	675.6
351.795	609.2
352.193	621.4
352.57	621.8
352.969	620.8
353.367	596
353.766	605.6
354.164	601.6
354.563	622.6
354.961	617.6
355.36	609.4
355.759	608.2
356.158	606
356.557	602.8
356.956	599.8
357.355	596.2
357.754	611.6
358.153	616.6
358.552	637.6
358.951	607.4
359.35	622
359.75	600.6
360.149	596.6
360.527	608.4
360.926	605
361.326	613.2
361.726	601.4
362.125	603.6
362.525	614.2
362.925	609
363.325	613.2
363.724	608.8
364.124	606.4
364.524	607
364.924	606.2
365.324	617.2
365.725	601.2
366.125	616.6
366.525	614.6
366.904	609.8
367.304	593.6
367.705	627.8
368.105	627
368.506	617.6
368.906	606.2
369.307	607.2
369.708	613
370.108	591.6
370.509	616.8
370.91	604.6
371.311	609.2
371.712	604.2
372.113	598.8
372.514	594
372.894	609.8
373.295	609.2
373.696	627.6
374.097	614.6
374.499	637.4
374.9	610
375.301	593.4
375.703	608.6
376.105	594.8
376.506	614.4
376.908	609.8
377.309	603
377.711	609.4
378.113	603.4
378.493	609.4
378.895	599.4
379.297	611
379.699	592.4
380.102	607.4
380.504	604.6
380.906	602.2
381.308	627.2
381.71	607.4
382.113	614.4
382.515	611
382.918	618.2
383.299	608.2
383.701	615.2
384.104	611
384.507	589.4
384.909	600.4
385.312	593.4
385.715	596.2
386.118	615.6
386.521	597.2
386.924	621.6
387.327	598.6
387.709	598
388.112	596.6
388.515	602.4
388.918	596.8
389.322	607.2
389.725	603.4
390.129	626.4
390.532	613.4
390.936	601.6
391.339	598
391.743	603.2
392.125	595.6
392.529	621.4
392.933	614.2
393.337	604.4
393.74	598.6
394.144	606.2
394.548	599.6
394.953	601.4
395.357	615
395.761	596.6
396.144	599.2
396.548	607
396.952	607.8
397.357	611.4
397.761	603.4
398.166	610
398.57	606
398.975	592.8
399.379	610.8
399.763	652
400.168	598.8
400.572	603.4
400.977	606.8
401.382	623
401.787	617.4
402.192	619.6
402.597	624.4
403.002	601.6
403.386	614
403.791	621.4
404.197	598.6
404.602	611
405.007	608.6
405.413	603.8
405.818	611.8
406.224	604
406.608	605
407.014	596
407.42	627.8
407.825	605.8
408.231	616.2
408.637	612.2
409.043	617
409.449	598.8
409.834	603.8
410.24	615.2
410.646	623.8
411.052	617.2
411.458	612.8
411.865	616.4
412.271	616.4
412.677	616.4
413.062	612.8
413.469	605.8
413.875	641
414.282	622.2
414.689	610.2
415.095	610.2
415.502	603.8
415.888	608.2
416.294	600.8
416.701	636
417.108	604.4
417.515	617.6
417.923	608.8
418.33	635
418.715	618.8
419.123	602.6
419.53	612.4
419.937	609.6
420.345	622
420.752	600.6
421.16	629
421.546	611.2
421.953	621.2
422.361	602
422.769	615.6
423.177	598.6
423.585	631.6
423.992	627.6
424.379	618
424.787	625
425.195	631.6
425.603	610.8
426.011	625.4
426.419	622.8
426.806	611.6
427.214	613
427.623	619.6
428.031	631.8
428.44	614.4
428.848	622.2
429.235	632.8
429.644	613
430.053	614.6
430.461	624.6
430.87	640
431.279	627.2
431.666	618.2
432.075	611.8
432.484	620.8
432.893	602.2
433.302	631.2
433.711	654.8
434.099	634.4
434.508	612.4
434.918	609.6
435.327	626.2
435.737	623.8
436.125	621.6
436.534	626.2
436.944	626.2
437.353	632.6
437.763	644.6
438.173	627.2
438.561	638.6
438.971	624.6
439.381	642.2
439.791	648.2
440.201	622.6
440.589	646.4
440.999	664.6
441.409	662
441.819	647.2
442.23	668.6
442.619	672.4
443.029	670.4
443.439	663.2
443.85	682.6
444.26	692.4
444.649	693.6
445.06	677.6
445.471	678.4
445.881	677.6
446.292	706.8
446.682	711.6
447.092	682.6
447.503	751.6
447.914	696.6
448.325	697.4
448.715	695.2
449.126	697.4
449.537	705.8
449.948	705.2
450.338	714.8
450.75	713.4
451.161	719.6
451.572	719.6
451.984	712.2
452.374	697.8
452.786	711.8
453.197	716.2
453.609	739.6
453.999	714.2
454.411	714
454.823	733.6
455.235	728.4
455.647	718.8
456.037	725
456.449	702.4
456.862	725.4
457.274	718.4
457.665	714.2
458.077	729.2
458.489	757.4
458.902	724.6
459.293	725.8
459.705	724.8
460.118	713.2
460.53	726.6
460.921	723
461.334	739
461.747	736
462.16	742.6
462.551	748.8
462.964	736.4
463.377	720.4
463.79	723.4
464.182	737.4
464.595	717.2
465.008	738.2
465.421	736.2
465.813	727
466.226	736.8
466.64	740.4
467.053	782.8
467.445	745.6
467.859	754.8
468.272	745.4
468.686	739.2
469.078	737.2
469.492	721.2
469.906	734.6
470.298	735.8
470.712	734.8
471.126	777.8
471.54	714.6
471.933	719.6
472.347	729.4
472.761	729.4
473.175	724.2
473.568	731.6
473.982	721.6
474.397	728.6
474.79	734
475.204	738.8
475.619	737.2
476.033	729.2
476.426	727.2
476.841	730.8
477.256	752
477.649	732.8
478.064	726.8
478.479	728.8
478.872	725.6
479.287	723.2
479.702	714.2
480.118	733.8
480.511	732.6
480.927	734.6
481.342	725.4
481.736	737.2
482.151	726.4
482.566	731.6
482.96	735.6
483.376	730.8
483.792	722.2
484.186	729.4
484.602	730.8
485.017	732.6
485.412	731.2
485.827	726.6
486.243	718.6
486.638	737.2
487.054	732.8
487.47	740.4
487.865	707.4
488.281	705.6
488.697	719.6
489.092	713
489.508	719.4
489.925	735.4
490.32	711.2
490.736	722
491.153	728.2
491.548	711.8
491.964	724.2
492.381	701.4
492.776	725
493.193	706.8
493.61	717
494.006	713
494.422	709.4
494.84	692.4
495.235	718
495.652	702.4
496.069	703.2
496.465	700.4
496.883	707.6
497.3	726.6
497.696	696.4
498.113	712.8
498.509	694.4
498.927	695
499.344	702.8
499.741	695
500.158	709.2
500.576	708.4
500.973	699.2
501.39	688.6
501.787	685.2
502.205	702.2
502.623	688.2
503.02	685.8
503.438	687.6
503.856	689.6
504.253	690.6
504.671	690
505.068	688.2
505.486	691.8
505.905	704.6
506.302	695.6
506.72	692
507.118	683.8
507.536	688.6
507.955	686.6
508.352	685.2
508.771	691.8
509.169	686.6
509.587	680
510.006	687.4
510.404	669
510.823	677.6
511.221	679
511.64	677.8
512.038	682.6
512.457	677.6
512.877	674.2
513.275	677.2
513.694	668
514.092	676.8
514.512	675.2
514.91	676.8
515.33	676.8
515.749	675.2
516.148	665.6
516.568	678
516.966	668.8
517.386	663.2
517.785	656.6
518.205	663.8
518.603	662.2
519.024	659.8
519.444	673.2
519.843	679.8
520.263	670
520.662	677.6
521.082	660.2
521.481	664
521.902	660.4
522.301	663.4
522.722	663.2
523.121	655.8
523.542	653.6
523.963	661
524.362	663.8
524.783	655.8
525.183	652.4
525.604	658.4
526.003	651.8
526.425	658
526.824	659.2
527.246	667.6
527.646	657.6
528.067	645
528.467	660.6
528.888	647
529.289	650.4
529.71	646.6
530.11	641.2
530.532	647
530.932	637.8
531.354	637
531.755	684.6
532.176	656.4
532.577	648.2
532.999	649.2
533.4	641.2
533.822	656.6
534.223	647.2
534.645	639.2
535.046	644.6
535.468	639
535.869	654.4
536.292	641
536.693	673.2
537.115	643.2
537.516	633.2
537.939	637.4
538.34	663.6
538.742	656.4
539.165	639.2
539.566	634.8
539.989	627.8
540.391	632.2
540.814	632.6
541.216	636.8
541.639	632
542.041	630.2
542.464	627.6
542.866	626.2
543.268	623
543.691	639
544.093	640.2
544.517	649
544.919	628
545.343	659
545.745	625.8
546.147	641.6
546.571	642
546.974	626.2
547.398	637.4
547.8	640.8
548.224	618.4
548.627	627.8
549.03	632.6
549.454	620.2
549.857	618.6
550.281	624
550.684	624.8
551.087	637
551.512	642.2
551.915	644.2
552.34	634
552.743	625.4
553.146	635
553.571	633.2
553.975	649.4
554.399	622.2
554.803	677
555.207	620.2
555.632	614.6
556.036	635.2
556.461	622
556.865	626.4
557.268	619.8
557.694	630.4
558.098	635.2
558.502	630
558.927	625
559.332	625.2
559.736	626.2
560.162	635
560.566	628.8
560.992	627.4
561.396	619.6
561.801	622.8
562.227	623.6
562.631	618.2
563.036	622.6
563.462	632.4
563.867	621.2
564.272	612.2
564.698	622.6
565.103	608.4
565.508	632.8
565.935	617
566.34	612.2
566.745	628.6
567.172	612.6
567.577	639.2
567.982	628.8
568.409	620
568.815	613.8
569.22	630.4
569.626	623.6
570.053	598
570.459	622.2
570.865	619.6
571.292	620
571.698	622.4
572.104	605
572.531	612.6
572.937	628.6
573.343	619.8
573.75	620.4
574.177	614
574.583	620.6
574.99	611
575.396	621
575.824	609.2
576.231	628.8
576.637	613
577.065	633.6
577.472	610.2
577.879	609.8
578.286	623.8
578.714	601.6
579.121	616.6
579.528	614.8
579.935	623.8
580.364	618.4
580.771	592.8
581.178	604.2
581.585	615.8
582.014	616.8
582.421	608.4
582.829	604.6
583.236	620.8
583.644	604.8
584.073	608.8
584.481	603.8
584.889	598
585.296	614.4
585.726	600
586.134	606.8
586.542	605.6
586.95	627.8
587.358	590.6
587.787	604.8
588.196	617.2
588.604	602.8
589.012	605.4
589.421	592.4
589.851	599.6
590.259	606.6
590.668	599.2
591.076	639
591.485	585.2
591.894	603.4
592.324	623.2
592.733	621.2
593.142	598.4
593.551	605.4
593.96	605.2
594.369	593.8
594.8	604.2
595.209	605.8
595.618	592.2
596.028	598
596.437	602.8
596.847	604.8
597.256	603.8
597.687	604
598.097	597
598.507	591.6
598.917	597.6
599.327	604.4
599.736	602.8
600.146	622.2
600.556	600.4
600.988	617.2
601.398	602.4
601.808	608.4
602.219	589.4
602.629	595.6
603.039	601.8
603.45	624.4
603.86	598.4
604.271	607.2
604.703	599.6
605.114	600.6
605.525	597
605.935	601.6
606.346	623
606.757	604.2
607.168	592.6
607.579	595.6
607.99	616.8
608.402	602.4
608.813	606.2
609.224	593.4
609.636	590.4
610.047	601.2
610.48	601.4
610.892	608
611.303	607.8
611.715	598.2
612.127	592.4
612.539	597.6
612.95	602
613.362	587.6
613.774	580.4
614.186	596.2
614.599	598.4
615.011	606
615.423	600.2
615.835	596.8
616.248	588.8
616.66	605.6
617.073	591.8
617.485	598.4
617.898	599
618.311	600.2
618.723	603.4
619.136	621.4
619.549	606.8
619.962	620.2
620.375	598.6
620.788	599
621.201	598.2
621.614	602
622.028	593.8
622.441	600.2
622.854	609.8
623.268	589.6
623.681	608
624.095	593.6
624.509	600.2
624.922	603
625.336	585.8
625.728	600.4
626.142	599.2
626.556	611.6
626.97	601.4
627.384	589.8
627.799	599.8
628.213	607.8
628.627	592.6
629.041	589
629.456	589.2
629.87	589
630.285	606.8
630.699	597.2
631.093	593
631.507	597
631.922	597.4
632.337	605.4
632.752	587.2
633.167	592.2
633.582	585.4
633.997	588.6
634.412	583.2
634.806	593
635.221	581.8
635.637	609.8
636.052	579.2
636.468	592.2
636.883	606.6
637.299	591
637.715	570.2
638.109	586.8
638.525	579.8
638.941	593
639.357	591.8
639.773	602.2
640.189	580.2
640.584	583.2
641	583.2
641.416	578.2
641.832	595.6
642.249	591.2
642.665	592
643.06	591.4
643.477	592.6
643.894	582.2
644.31	597.6
644.727	595.2
645.123	582.4
645.54	583.6
645.957	592.8
646.374	601.8
646.77	595.2
647.187	623
647.604	596.4
648.021	583.8
648.439	589.2
648.835	602.8
649.252	595.4
649.67	586.2
650.088	597.8
650.484	590.2
650.902	590
651.32	598.8
651.738	592.2
652.134	588.6
652.552	608.6
652.971	599.4
653.389	589.4
653.786	604.4
654.204	612.6
654.622	577
655.019	591.6
655.438	591
655.857	600.8
656.275	604
656.673	585
657.091	596.4
657.51	588.8
657.908	594
658.327	598.6
658.746	579.6
659.144	595.6
659.563	603.6
659.982	602
660.38	573.2
660.8	598.8
661.219	598.4
661.617	595.8
662.037	585
662.457	600.6
662.855	579.6
663.275	619.6
663.695	594.6
664.094	594.8
664.514	585.6
664.934	577.4
665.333	583
665.753	581.2
666.152	588.6
666.572	585.2
666.993	595.8
667.392	586.6
667.812	578.8
668.212	586.4
668.632	601.2
669.053	589
669.453	589
669.874	590.8
670.273	600.6
670.694	584
671.116	605.4
671.515	598.2
671.937	592.4
672.337	586.6
672.758	582.8
673.158	602.6
673.58	580.2
673.98	587
674.402	602
674.824	585.6
675.224	584.2
675.646	587.2
676.047	588.4
676.469	586.8
676.869	591
677.292	589.8
677.693	579
678.115	594
678.516	592.2
678.939	596.6
679.34	591.2
679.762	600.2
680.164	586.8
680.586	587.4
680.988	586.8
681.411	614
681.812	586.2
682.236	579.4
682.637	582.2
683.061	577.8
683.462	586.4
683.864	589.6
684.288	594.2
684.69	577.4
685.114	597.6
685.516	602.6
685.94	593
686.342	598
686.766	580.8
687.168	585
687.571	608.4
687.995	588.4
688.398	570.8
688.822	584.2
689.225	603.8
689.628	609.4
690.052	591
690.456	598.2
690.88	583.6
691.284	578
691.687	585.6
692.112	583.4
692.515	579.2
692.919	590.4
693.344	584.8
693.747	583
694.173	583.8
694.577	597
694.98	590.4
695.406	587.6
695.81	586
696.214	584
696.64	595.6
697.044	586.4
697.448	597.8
697.874	592
698.279	591.4
698.684	579.8
699.11	578.4
699.514	586.6
699.919	582.6
700.324	590.6
700.75	586.2
701.156	587
701.561	598.2
701.987	591
702.393	593.8
702.798	601.4
703.203	593.8
703.63	582.8
704.036	589.2
704.442	603.2
704.847	583.8
705.274	585.6
705.68	592.2
706.086	597.8
706.492	572.4
706.92	586.6
707.326	600.2
707.732	584.4
708.139	582.6
708.545	573
708.973	583.6
709.38	583.2
709.786	568.4
710.193	602
710.6	588.6
711.028	571.4
711.435	585.2
711.842	589.2
712.249	581.8
712.656	581.8
713.064	590.4
713.492	573
713.9	582.8
714.307	594
714.715	587
715.123	587
715.53	589.4
715.938	596.6
716.367	590.6
716.775	586.4
717.184	581.8
717.592	579
718	593.8
718.408	620.8
718.816	632.4
719.225	586.4
719.633	590.8
720.042	577.8
720.472	578.8
720.881	608
721.29	589.2
721.699	575.4
722.108	588.8
722.517	583.2
722.926	578
723.335	592.8
723.744	575.6
724.154	579.4
724.563	584.6
724.973	585.6
725.382	576.8
725.792	589
726.202	577.8
726.612	597.4
727.022	579.6
727.432	581
779.813	573.8
780.223	627.6
780.634	587
781.044	578.2
781.454	585.2
781.865	599.8
782.276	577.2
782.686	598.8
783.097	578.6
783.508	579.6
783.919	581.8
784.33	584.6
784.741	595.2
785.152	577.6
785.563	566
785.974	571.8
786.386	597.2
786.776	582.8
787.188	580.6
787.599	576
788.011	590.4
788.423	586
788.835	576.2
789.247	564.6
789.659	569.6
790.071	576.4
790.483	613.8
790.874	575
791.286	591
791.699	590.6
792.111	581.6
792.524	582
792.937	581.2
793.349	577
793.741	581
794.154	578
794.567	602.6
794.98	582.2
795.393	574.2
795.785	593.2
796.198	579
796.612	595.4
797.026	578
797.439	567.6
797.831	587.2
798.245	571.8
798.659	585.2
799.073	568.2
799.487	578.2
799.88	583.8
800.294	582.2
800.708	589.6
801.123	588
801.516	594
801.93	577
802.345	570.8
802.76	579.2
803.153	596.4
803.568	598.6
803.983	594.4
804.377	592.8
804.792	570
805.207	571.8
805.601	591
806.016	622.8
806.432	580.8
806.826	608.2
807.242	604.6
807.658	590.8
808.052	583.4
808.468	580.2
808.884	576
809.279	587
809.695	587
810.111	605
810.506	576.2
810.922	596.4
811.339	581.8
811.734	581
812.151	577
812.546	574.4
812.963	579
813.38	588.2
813.776	583.6
814.193	595.8
814.589	582
815.006	571
815.402	577.2
815.82	577.6
816.237	581.8
816.633	587.2
817.051	575.2
817.448	584
817.866	571.4
818.262	602
818.68	578
819.077	576.8
819.495	583.4
819.892	619.6
820.311	574.4
820.708	583
821.127	580.2
821.524	587.2
821.943	576.8
822.34	596.8
822.759	588.6
823.157	577
823.576	599
823.974	590.6
824.393	625.4
824.791	578.6
825.189	574.6
825.609	581.2
826.007	582
826.427	576
826.826	573.4
827.246	586.2
827.644	574
828.043	590.2
828.463	576.2
828.862	581.8
829.261	578.2
829.682	574
830.081	590.8
830.502	572.8
830.901	588.6
831.301	591.6
831.722	564.8
832.121	575.4
832.521	577
832.943	581.2
833.342	579.6
833.742	565.4
834.164	576.6
834.564	573.6
834.965	575
835.386	578.6
835.787	572.8
836.188	584.4
836.588	580
837.01	580.8
837.411	568.8
837.812	582.4
838.213	591.8
838.636	569.2
839.037	650.2
839.438	588
839.84	579.2
840.263	588.4
840.664	576.8
841.066	574.2
841.468	584
841.891	570.2
842.293	591.4
842.695	578.4
843.098	592.2
843.5	579.6
843.902	585.2
844.326	585.6
844.729	586.6
845.131	592.8
845.534	590.8
845.937	589.8
846.34	596.4
846.764	575
847.167	586.8
847.571	578.6
847.974	585.4
848.377	573.4
848.781	627.8
849.184	584.2
849.588	571.6
849.992	575.8
850.396	582.4
850.821	605.6
851.225	588.6
851.63	578.6
852.034	586.8
852.438	589.4
852.843	651.8
853.247	578.4
853.652	576.4
854.057	593.2
854.462	581
854.867	586.8
855.272	614.8
855.677	595
856.082	572
856.487	576.2
856.893	589.6
857.298	574.6
857.704	577.6
858.11	580.8
858.516	601.4
858.922	577.6
859.328	587
859.734	588.8
860.14	592.2
860.525	580.8
860.931	574.4
861.338	583.6
861.745	585.6
862.151	588.8
862.558	593
862.965	576.4
863.372	572.4
863.779	577.4
864.186	602.8
864.572	581.8
864.98	599.6
865.387	611.4
865.795	576.6
866.203	595
866.61	574.8
867.018	593.4
867.405	579.6
867.813	582.2
868.221	566.2
868.63	572.2
869.038	585.4
869.425	622.4
869.834	576.2
870.243	565.6
870.652	568.2
871.039	585.6
871.448	573.6
871.857	585.4
872.266	579.6
872.654	586.2
873.064	580
873.473	590.2
873.883	571.4
874.271	578.6
874.681	589.6
875.091	569.4
875.48	589.8
875.89	596.4
876.3	580
876.689	560.6
877.1	582.6
877.51	585.8
877.9	596
878.31	578.2
878.721	610.4
879.111	577.4
879.522	577.8
879.933	565
880.323	563
880.734	558.6
881.125	575.8
881.536	571.4
881.948	568.8
882.338	573
882.75	580
883.141	575.6
883.553	582.4
883.944	604.4
884.356	586.2
884.769	572
885.16	574.6
885.573	574.8
885.964	574.4
886.377	584.6
886.768	565.2
887.181	566.4
887.573	571.2
887.987	576
888.378	590.4
888.792	585
889.184	623.4
889.598	570.8
889.99	569.8
890.383	586.6
890.797	577.8
891.19	591.4
891.604	582.6
891.997	562.2
892.411	563.6
892.805	574.2
893.198	568.2
893.613	569.8
894.006	575.8
894.421	570
894.815	580.6
895.209	575
895.624	623.6
896.018	594.2
896.412	588
896.828	575.4
897.222	580.8
897.617	576.2
898.033	605.2
898.427	585.2
898.822	581.2
899.239	566.6
899.634	571
900.029	591.2
900.424	571.6
900.841	569
901.236	591.6
901.632	582.8
902.027	626.2
902.445	587
902.841	587
903.237	582.8
903.633	595
904.05	592.2
904.447	587.2
904.843	590.2
905.24	576.2
905.636	560
906.033	577.8
906.451	582.6
906.848	567.6
907.246	573.6
907.643	581.2
908.04	579.6
908.438	595.6
908.835	577.8
909.254	573.2
909.652	584.8
910.05	577.4
910.448	567.8
910.846	580.4
911.244	563
911.643	581.8
912.041	584.6
912.44	590.4
912.839	579.2
913.237	566.8
913.636	569.4
914.035	581.4
914.434	577.4
914.834	587.2
915.233	589
915.633	568.4
916.032	570.2
916.432	572.8
916.832	594
917.232	575.8
917.632	562.6
918.032	591.8
918.432	580
918.833	576.6
919.233	571.6
919.634	569.4
920.035	586.4
920.436	570.2
920.837	574.2
921.238	570.6
921.639	570.4
922.019	581.2
922.42	575.8
922.822	582.2
923.224	576.8
923.625	572.2
924.027	577
924.429	595.2
924.81	576
925.212	575.2
925.615	575
926.017	576.8
926.42	586.4
926.801	584
927.204	576.8
927.607	585.8
928.01	590.6
928.413	577.2
928.795	566.6
929.199	574.2
929.602	577.2
930.006	574.2
930.388	575
930.792	583
931.196	571
931.579	607.8
931.983	569.2
932.388	623.6
932.771	567.2
933.176	572.8
933.58	586.2
933.964	579.2
934.369	570.6
934.774	583.4
935.158	578.8
935.563	579.4
935.947	570.6
936.353	590.2
936.759	580
937.143	580
937.549	582.2
937.934	586.2
938.34	593.4
938.746	561
939.131	570.8
939.538	573.4
939.923	581.2
940.33	571.8
940.716	582.8
941.123	576.8
941.508	592.2
941.916	598
942.302	585.8
942.709	565.8
943.096	575.6
943.503	574.2
943.89	570.6
944.298	578
944.685	596
945.072	574.6
945.48	588.2
945.867	570.4
946.276	570.8
946.663	601
947.051	589.2
947.46	585.4
947.848	580.4
948.257	567.6
948.645	574
949.033	573.8
949.443	573.6
949.831	620.4
950.22	561.4
950.63	579
951.018	604.4
951.407	574.4
951.796	568.6
952.207	585
952.596	576.6
952.985	573.4
953.375	623.4
953.786	581
954.176	569
954.566	579.4
954.956	560
955.367	579
955.758	608.2
956.148	566.4
956.539	587
956.929	566.4
957.341	564.2
957.732	572.2
958.123	588.4
958.515	560.4
958.906	586.4
959.297	575
959.689	579
960.102	566.4
960.494	574
960.886	567.8
961.278	565.8
961.67	591.6
962.062	602.6
962.455	574.2
962.847	574.6
963.24	569
963.633	575
964.026	568.4
964.419	578.6
964.812	588.8
965.206	582.6
965.599	579.8
965.993	575.4
966.386	571.2
966.78	585.2
967.174	584.2
967.569	578.8
967.963	565.8
968.357	566.4
968.752	572.6
969.146	566
969.541	576.8
969.936	573.2
970.331	574.6
970.705	575.8
971.1	566.4
971.496	583.4
971.892	568.2
972.287	575.4
972.683	575.6
973.079	562.6
973.454	582.8
973.85	572.6
974.247	575.8
974.643	593.2
975.04	570
975.415	574.2
975.812	565
976.209	573.2
976.607	571
976.982	584.4
977.38	593
977.778	578.8
978.175	567
978.552	575
978.95	572.8
979.348	584.2
979.725	619.2
980.123	578
980.522	577
980.899	564.4
981.298	572.4
981.697	575
982.075	575
982.474	565
982.852	574
983.251	580.2
983.651	571
984.029	581
984.429	575.4
984.808	569.8
985.208	569.4
985.609	570.2
985.987	563.6
986.388	567.8
986.768	580
987.168	566.2
987.548	582.2
987.949	578.2
988.329	580.8
988.731	563.4
989.111	579.6
989.491	570.4
989.893	578.8
990.273	588.8
990.676	563.8
991.057	568
991.459	578
991.84	574
992.221	571.6
992.624	589.4
993.006	579.4
993.388	586.4
993.791	577.2
994.173	579
994.576	605.2
994.959	575.2
995.341	582.4
995.724	578.2
996.128	581.6
996.511	582.4
996.894	573.4
997.298	572.6
997.681	577.4
998.065	577
998.448	565.2
998.854	585
999.237	567.8
999.621	590.4
1000.01	583.2
1000.39	571.4
1000.8	568.6
1001.18	572.6
1001.56	571.8
1001.95	577.8
1002.33	579
1002.72	571
1003.13	573
1003.51	577
1003.9	572.4
1004.28	595.8
1004.67	573.8
1005.06	571.2
1005.44	606.2
1005.83	563.2
1006.21	569
1006.6	569
1006.99	581.6
1007.37	580.2
1007.76	588
1060.12	573
1060.51	570
1060.89	586
1061.28	586.2
1061.67	583.2
1062.06	581.6
1062.45	582
1062.83	566
1063.22	588.2
1063.61	621
1064	581.8
1064.39	573.6
1064.78	571
1065.14	588.4
1065.53	577.6
1065.92	572.4
1066.31	561.4
1066.7	579.6
1067.09	582.6
1067.46	586.6
1067.85	575.2
1068.24	566
1068.63	583.4
1069.02	568
1069.39	580.2
1069.78	572.4
1070.17	575.6
1070.57	560.6
1070.93	573
1071.33	569.2
1071.72	579.2
1072.11	574
1072.48	569.6
1072.87	578
1073.26	572
1073.64	570.4
1074.03	564.2
1074.4	568.8
1074.79	571
1075.19	578.8
1075.56	576.4
1075.95	579.6
1076.34	568
1076.72	575.4
1077.11	583.4
1077.48	587.6
1077.88	572.4
1078.25	569.6
1078.64	584.2
1079.02	573.2
1079.41	577.4
1079.78	575.2
1080.18	581.6
1080.55	639
1080.95	562.4
1081.32	566.4
1081.72	582.6
1082.09	580.6
1082.49	575.4
1082.86	574.6
1083.24	563
1083.63	568.8
1084.01	572
1084.38	581.6
1084.78	571.4
1085.16	576
1085.55	578.6
1085.93	577.4
1086.31	567.4
1086.7	606.8
1087.08	579.8
1087.46	567.6
1087.83	566.4
1088.23	582.6
1088.61	576.6
1088.99	576
1089.36	562.4
1089.76	575.8
1090.14	574.2
1090.52	571.4
1090.9	571.6
1091.27	584.4
1091.67	599.2
1092.05	577
1092.43	562.6
1092.81	585
1093.19	577.2
1093.57	572.2
1093.95	571.8
1094.35	584.8
1094.73	587
1095.11	573.6
1095.49	568.8
1095.87	571.2
1096.25	583.2
1096.63	583.2
1097.01	575
1097.39	581.6
1097.77	570.2
1098.15	568.8
1098.53	562.8
1098.91	571
1099.29	572
1099.68	591.4
1100.06	577.4
1100.44	574.8
1100.82	572.6
1101.18	574.8
1101.56	566.4
1101.95	567.2
1102.33	571.4
1102.71	573.6
1103.1	560
1103.48	557.2
1103.86	555.8
1104.22	581.6
1104.61	574.4
1104.99	568.2
1105.38	554
1105.76	569.6
1106.12	570.6
1106.51	608.6
1106.89	578.6
1107.26	578.2
1107.64	584.2
1108.03	577.2
1108.41	569.6
1108.78	565
1109.16	574.4
1109.55	582.6
1109.91	555.8
1110.3	558.6
1110.69	584
1111.05	557
1111.44	576.2
1111.8	573
1112.19	581.2
1112.58	574.8
1112.94	570
1113.33	562.6
1113.7	558.2
1114.09	552.6
1114.45	562.8
1114.84	560.6
1115.21	578.2
1115.6	566
1115.96	566.8
1116.35	569.8
1116.72	568.6
1117.11	578
1117.48	556.6
1117.85	566.4
1118.24	578.2
1118.6	575.2
1118.99	566.2
1119.36	569.6
1119.73	566.6
1120.12	576.2
1120.49	558.2
1120.86	581.4
1121.25	570.8
1121.62	561.8
1121.99	562.4
1122.38	578.6
1122.76	568.8
1123.13	564
1123.5	579.2
1123.89	579.8
1124.26	562.2
1124.63	570
1125	571.6
1125.4	568.8
1125.77	568
1126.14	550.8
1126.51	567.2
1126.88	582.4
1127.26	563.4
1127.63	557.6
1128.02	574.6
1128.4	558.4
1128.77	568
1129.14	575.4
1129.52	576.8
1129.89	576
1130.26	566.8
1130.64	557.6
1131.01	565.8
