#lambda/nm	C1
208.295	504
208.67	461.4
209.045	424.8
209.419	430
209.794	612.6
210.169	602.2
210.544	715.4
210.919	617.2
211.295	610.8
211.67	618.8
212.045	606.4
212.421	610.4
212.796	639.4
213.172	597.4
213.547	605.8
213.923	604
214.299	613
214.675	622.4
215.051	615.6
215.427	616.2
215.803	629.8
216.179	620.4
216.555	605.8
216.932	619.2
217.308	618.2
217.684	616.2
218.061	617.6
218.438	614.4
218.814	609
219.191	616.8
219.568	609.8
219.945	616.6
220.322	620
220.699	621.8
221.076	630.4
221.453	614.4
221.83	601.2
222.208	617.4
222.585	610.4
222.962	605.2
223.34	615.8
223.717	612.6
224.095	607.8
224.473	620
224.851	603.8
225.229	603.4
225.607	625
225.985	605.4
226.363	613.8
226.741	616.4
227.119	607.4
227.497	628
227.876	606.8
228.254	616.6
228.633	621.6
229.011	615.2
229.39	622.4
229.769	622.2
230.148	627.6
230.527	633.8
230.905	614.2
231.284	626.4
231.664	607
232.043	623.6
232.422	621.8
232.801	603.6
233.181	626.2
233.56	609
233.94	618
234.319	594
234.699	612.8
235.079	659.6
235.458	640.6
235.838	628.4
236.218	622.6
236.598	608.8
236.978	609.6
237.358	611.8
237.738	612.8
238.119	624.2
238.499	609.4
238.88	608.4
239.26	626.8
239.641	604.6
240.021	624.4
240.402	617.4
240.783	617.2
241.163	618.2
241.544	619.4
241.925	621.4
242.306	631.4
242.687	619.6
243.069	622
243.45	625.6
243.831	613.6
244.212	620.8
244.594	652.8
244.975	622
245.357	622.6
245.739	606
246.12	619
246.502	627.2
246.884	617.6
247.266	612.6
247.648	618.2
248.03	639.2
248.412	617.2
248.794	616.8
249.176	609.2
249.559	621.2
249.941	608.2
250.323	613.8
250.706	610.8
251.089	617.6
251.471	619.4
251.854	613.2
252.237	617.4
252.62	624
253.002	611
253.385	613.6
253.769	626.6
254.152	617.6
254.535	614.2
254.918	611.2
255.301	614.8
255.685	613
256.068	609.2
256.452	638.2
256.835	635.4
257.219	622.8
257.603	629.6
257.986	594.6
258.37	617.8
258.754	611.8
259.138	615.4
259.522	627.8
259.906	612
260.29	618.8
260.675	614.4
261.059	610.8
261.443	605.4
261.828	623.8
262.212	615.2
262.597	603.6
262.981	609.8
263.366	616.4
263.751	614.4
264.136	611
264.521	612.6
264.906	618.6
265.291	628.4
265.676	613.2
266.061	625.2
266.446	636.6
266.831	616.2
267.217	639.4
267.602	622.4
267.987	619.8
268.373	612.2
268.759	631.8
269.144	624.4
269.53	621
269.916	609.8
270.302	608.4
270.688	611
271.074	617.2
271.46	628.2
271.846	653.4
272.232	620
272.618	612.4
273.004	610
273.391	625.4
273.777	635.2
274.164	624.2
274.55	638
274.937	620.4
275.324	618.8
275.71	617.6
276.097	624
276.484	615.6
276.871	613.8
277.258	617.2
277.645	611.4
278.032	614
278.419	611.2
278.807	623.4
279.194	604.8
279.581	611.6
279.969	621.2
280.356	617.8
280.744	617.2
281.131	646.6
281.519	626.6
281.907	605
282.295	618
282.682	625.8
283.07	621.6
283.458	617.4
283.846	622.6
284.235	629
284.623	626.2
285.011	610.6
285.399	626
285.788	609.8
286.176	611
286.565	623
286.953	612.6
287.342	614.6
287.731	612.2
288.119	610.6
288.508	623.2
288.897	618.4
289.286	604.2
289.675	615.6
290.064	628
290.453	612.8
290.821	612.6
291.21	634
291.599	612.8
291.989	622.2
292.378	617.8
292.768	639.2
293.157	616.4
293.547	626.4
293.936	613.2
294.326	607
294.716	616.4
295.106	607.4
295.496	624.8
295.886	626.6
296.276	617.2
296.666	605.8
297.056	606.4
297.446	609.2
297.836	632.4
298.227	618.8
298.617	622.8
299.008	636.6
299.398	615.8
299.789	610.4
300.179	617.6
300.57	621.6
300.961	609.4
301.352	613.6
301.742	617.8
302.133	614.2
302.524	610.4
302.915	625.2
303.307	605.4
303.698	618.2
304.089	633.8
304.48	618.2
304.872	619
305.263	612
305.655	606.4
306.046	617.4
306.438	620.4
306.829	612
307.221	624.4
307.613	627.2
308.005	632
308.397	628.8
308.789	636.8
309.181	633.8
309.573	630.8
309.965	627.4
310.357	605.2
310.749	626.2
311.142	603.6
311.534	605.6
311.926	615
312.319	612.6
312.711	611.4
313.104	632.8
313.497	611.6
313.889	654.4
314.282	634.2
314.675	649.2
315.068	616.2
315.461	622.6
315.854	642.4
316.247	623
316.64	612.6
317.033	615.2
317.405	631
317.798	612.4
318.192	619.6
318.585	614.8
318.979	619.2
319.372	615.4
319.766	611.4
320.16	627
320.553	623.6
320.947	634.2
321.341	607.2
321.735	617.4
322.129	610.2
322.523	641
322.917	608.6
323.311	630
323.705	614.2
324.099	615.8
324.494	629.6
324.888	618.4
325.282	612.2
325.677	628
326.071	622.2
326.466	622.6
326.861	614.2
327.255	627
327.65	633.6
328.045	632.2
328.44	620.6
328.835	621.2
329.23	616.6
329.625	640.6
330.02	606.6
330.415	636.6
330.81	617.6
331.206	616.6
331.601	614.4
331.996	630.6
332.37	644
332.766	606.2
333.161	643.2
333.557	615.4
333.953	623.2
334.348	995
334.744	623.4
335.14	619.4
335.536	610.8
335.932	624.8
336.328	621
336.724	624.6
337.12	623.2
337.516	626.4
337.913	617.6
338.309	632.6
338.705	614.6
339.102	628
339.498	614
339.895	639.2
340.291	625
340.688	625
341.085	607.6
341.481	609.6
341.878	610.2
342.275	641.6
342.672	608.2
343.069	611.8
343.466	606.6
343.842	625.8
344.239	604
344.636	613.6
345.033	610.4
345.431	605.2
345.828	617.2
346.225	613.8
346.623	642.6
347.02	621.2
347.418	614
347.816	623.6
348.213	615
348.611	629.4
349.009	607.2
349.407	625
349.805	597.2
350.203	607.2
350.601	629.4
350.999	615.8
351.397	661.6
351.795	608.6
352.193	631.4
352.57	622.2
352.969	628
353.367	609
353.766	605.6
354.164	611.2
354.563	619.4
354.961	614
355.36	607.6
355.759	616.2
356.158	606
356.557	608.8
356.956	607
357.355	599.8
357.754	625.6
358.153	613.4
358.552	637.4
358.951	612.8
359.35	628.4
359.75	606.4
360.149	605.8
360.527	595.8
360.926	602
361.326	613.2
361.726	609.6
362.125	611.6
362.525	615.2
362.925	611.8
363.325	611.2
363.724	612.8
364.124	603.6
364.524	603
364.924	602
365.324	621.8
365.725	593.8
366.125	614
366.525	609.2
366.904	607.6
367.304	592.6
367.705	626.4
368.105	625.8
368.506	603
368.906	606.6
369.307	607.6
369.708	604.6
370.108	596.6
370.509	614.8
370.91	602.2
371.311	611.4
371.712	616.8
372.113	610.4
372.514	602.4
372.894	603.4
373.295	605.2
373.696	620
374.097	618
374.499	639.4
374.9	612.4
375.301	599
375.703	621.4
376.105	613.6
376.506	617.6
376.908	617.6
377.309	608.2
377.711	616.6
378.113	598
378.493	604.2
378.895	609.2
379.297	621.2
379.699	599.8
380.102	611.2
380.504	615.2
380.906	601.8
381.308	635
381.71	613.6
382.113	618.2
382.515	617.6
382.918	612
383.299	605.8
383.701	620.6
384.104	609.6
384.507	591.6
384.909	613.4
385.312	598.6
385.715	598.6
386.118	602
386.521	596.8
386.924	612
387.327	604.4
387.709	595.6
388.112	596.8
388.515	607.6
388.918	609.8
389.322	614.6
389.725	598.8
390.129	627.2
390.532	615
390.936	604.2
391.339	599.8
391.743	607.4
392.125	600.4
392.529	617.2
392.933	625.6
393.337	610.4
393.74	608.4
394.144	600
394.548	610.2
394.953	607.2
395.357	619.6
395.761	607.4
396.144	609
396.548	603
396.952	606
397.357	614.6
397.761	607
398.166	602
398.57	612
398.975	595.6
399.379	608.8
399.763	655.6
400.168	610.2
400.572	602.4
400.977	604.2
401.382	618
401.787	614.6
402.192	617.8
402.597	623.4
403.002	597.8
403.386	626.8
403.791	627.6
404.197	595.6
404.602	606.6
405.007	611.6
405.413	609.2
405.818	608.4
406.224	601.8
406.608	598.8
407.014	590.4
407.42	616
407.825	602
408.231	612.2
408.637	612
409.043	626
409.449	597.8
409.834	593.2
410.24	612.4
410.646	617
411.052	620.8
411.458	610.8
411.865	608.8
412.271	613.4
412.677	611.4
413.062	605.6
413.469	593
413.875	636.6
414.282	622.8
414.689	622.2
415.095	620.2
415.502	609.8
415.888	608.2
416.294	585.8
416.701	642.2
417.108	606.8
417.515	613.4
417.923	601.8
418.33	633.6
418.715	614
419.123	607.2
419.53	610.4
419.937	615.8
420.345	621.4
420.752	604.6
421.16	627.8
421.546	606.2
421.953	615.4
422.361	596.4
422.769	612.4
423.177	602.8
423.585	628.2
423.992	631
424.379	622.6
424.787	615.2
425.195	624
425.603	607.6
426.011	623.2
426.419	628
426.806	611
427.214	611.6
427.623	627.8
428.031	627.8
428.44	619
428.848	624.8
429.235	628.4
429.644	612.6
430.053	610.8
430.461	630.8
430.87	639.6
431.279	614
431.666	599.6
432.075	622.8
432.484	620.4
432.893	613.4
433.302	636.2
433.711	658.8
434.099	620
434.508	618.2
434.918	614.8
435.327	634.4
435.737	630.6
436.125	637
436.534	632.2
436.944	630.6
437.353	643
437.763	661.6
438.173	642.2
438.561	663
438.971	634.6
439.381	654.8
439.791	663.2
440.201	649.8
440.589	671.6
440.999	674
441.409	678.2
441.819	667.8
442.23	692.4
442.619	683
443.029	688.8
443.439	695.8
443.85	711.2
444.26	700.8
444.649	704.2
445.06	692.4
445.471	696.6
445.881	703.6
446.292	715.6
446.682	734
447.092	696
447.503	762.4
447.914	716.2
448.325	705
448.715	721
449.126	721.6
449.537	726
449.948	726.2
450.338	726
450.75	745.6
451.161	741.4
451.572	738.6
451.984	728.8
452.374	717.6
452.786	729.4
453.197	739.2
453.609	733.6
453.999	722.4
454.411	725.4
454.823	737.6
455.235	740
455.647	733.4
456.037	748.2
456.449	723.6
456.862	738.4
457.274	741.2
457.665	732
458.077	738
458.489	788
458.902	738
459.293	753.4
459.705	741.2
460.118	742
460.53	753.4
460.921	747.6
461.334	750.8
461.747	742.4
462.16	771
462.551	756.2
462.964	756.6
463.377	733.8
463.79	754.8
464.182	759.4
464.595	741.4
465.008	745.6
465.421	766.8
465.813	743.6
466.226	761.6
466.64	749
467.053	806.4
467.445	771
467.859	774.2
468.272	757
468.686	777.2
469.078	752
469.492	744.6
469.906	757.8
470.298	776
470.712	748.8
471.126	816.4
471.54	752.6
471.933	738.4
472.347	765.4
472.761	754.4
473.175	748.6
473.568	757.6
473.982	749.4
474.397	768
474.79	753.6
475.204	771.2
475.619	754
476.033	766.8
476.426	756
476.841	740.2
477.256	781.4
477.649	745.2
478.064	745.4
478.479	749
478.872	740.8
479.287	743.4
479.702	748.2
480.118	748.6
480.511	750.6
480.927	750.2
481.342	751.4
481.736	762.4
482.151	733.2
482.566	755.8
482.96	743
483.376	768.4
483.792	743
484.186	753
484.602	733
485.017	746.2
485.412	745.2
485.827	741.4
486.243	741.4
486.638	770.2
487.054	747.8
487.47	760.8
487.865	741
488.281	740.2
488.697	738.6
489.092	735.6
489.508	736.2
489.925	745.2
490.32	732.4
490.736	748.6
491.153	741.4
491.548	735.6
491.964	742.4
492.381	711
492.776	732.2
493.193	725.2
493.61	738.6
494.006	722
494.422	735.6
494.84	724.6
495.235	731.4
495.652	730.8
496.069	723.8
496.465	718
496.883	724.8
497.3	746.8
497.696	711.8
498.113	723.8
498.509	712.4
498.927	712.6
499.344	706.8
499.741	724.4
500.158	721.2
500.576	724
500.973	723.2
501.39	705.2
501.787	707.6
502.205	710.2
502.623	707
503.02	696.6
503.438	699
503.856	702.4
504.253	705.6
504.671	703.2
505.068	694.2
505.486	694
505.905	720.2
506.302	697.8
506.72	705.8
507.118	698
507.536	698
507.955	699.6
508.352	695.6
508.771	708.8
509.169	705.4
509.587	690.8
510.006	696.4
510.404	685.4
510.823	690.6
511.221	686.4
511.64	689.8
512.038	708.4
512.457	687.6
512.877	692.6
513.275	682.6
513.694	689
514.092	683
514.512	688.4
514.91	697.6
515.33	681.4
515.749	683.6
516.148	686.8
516.568	684.4
516.966	688
517.386	673.4
517.785	678.8
518.205	671.2
518.603	671.4
519.024	677.4
519.444	685.2
519.843	684.8
520.263	685
520.662	672.2
521.082	662
521.481	679.6
521.902	672.4
522.301	675
522.722	674.6
523.121	673.2
523.542	670.8
523.963	666.4
524.362	670
524.783	663.6
525.183	660.2
525.604	665.2
526.003	663.6
526.425	654.4
526.824	673.4
527.246	676.2
527.646	666
528.067	660
528.467	668.4
528.888	669.2
529.289	653.2
529.71	665.4
530.11	645.6
530.532	653.6
530.932	638.8
531.354	649
531.755	693
532.176	662.4
532.577	657.6
532.999	656.6
533.4	642.8
533.822	656.8
534.223	662.6
534.645	653
535.046	648.2
535.468	659.2
535.869	668.6
536.292	640
536.693	683.2
537.115	654.8
537.516	637.8
537.939	651.4
538.34	672.2
538.742	665.6
539.165	642.2
539.566	645.6
539.989	642.6
540.391	644.8
540.814	643.6
541.216	647
541.639	641
542.041	656.4
542.464	639.8
542.866	636.4
543.268	630.4
543.691	644.4
544.093	653.8
544.517	667.4
544.919	640.2
545.343	662.8
545.745	632
546.147	642.6
546.571	636
546.974	631
547.398	639.4
547.8	648.4
548.224	626.4
548.627	633.8
549.03	647.4
549.454	627
549.857	617.4
550.281	627.8
550.684	628.4
551.087	651.2
551.512	644.4
551.915	639.6
552.34	631.6
552.743	630.6
553.146	643.2
553.571	631
553.975	643.8
554.399	622.6
554.803	680
555.207	613.2
555.632	623.8
556.036	637.4
556.461	623.4
556.865	631.8
557.268	623.4
557.694	618.4
558.098	624.2
558.502	627.8
558.927	628.6
559.332	618.2
559.736	625.2
560.162	633.2
560.566	620.4
560.992	628.2
561.396	629.4
561.801	616.6
562.227	619.2
562.631	622.2
563.036	623.4
563.462	624
563.867	622.6
564.272	610.4
564.698	624.6
565.103	613.4
565.508	642.6
565.935	612.4
566.34	613.6
566.745	641.4
567.172	620.6
567.577	638
567.982	628
568.409	630.4
568.815	617.6
569.22	615.6
569.626	631.4
570.053	603.2
570.459	630.2
570.865	622
571.292	620.6
571.698	620.2
572.104	609.4
572.531	622.4
572.937	623.4
573.343	618.4
573.75	609.4
574.177	617.6
574.583	620.2
574.99	615.8
575.396	624.4
575.824	613.6
576.231	624.6
576.637	614
577.065	643.2
577.472	611.4
577.879	617.6
578.286	627.6
578.714	609.6
579.121	613.8
579.528	618.2
579.935	617
580.364	603.4
580.771	598.4
581.178	602.2
581.585	626.4
582.014	620
582.421	604.8
582.829	606.8
583.236	617.4
583.644	608.4
584.073	605.4
584.481	606.6
584.889	605.8
585.296	614.2
585.726	608.2
586.134	598.8
586.542	602.2
586.95	624.8
587.358	596.4
587.787	608
588.196	612.4
588.604	604.8
589.012	603.6
589.421	594.6
589.851	601.2
590.259	604.2
590.668	598.2
591.076	647
591.485	600.2
591.894	602
592.324	613.8
592.733	614.6
593.142	598.4
593.551	608.2
593.96	604
594.369	593.6
594.8	594.2
595.209	603.2
595.618	583
596.028	595.2
596.437	591
596.847	595.4
597.256	596.6
597.687	606.4
598.097	606.2
598.507	585.8
598.917	602.6
599.327	606.8
599.736	604
600.146	606.4
600.556	601.4
600.988	605
601.398	593.4
601.808	612.2
602.219	586.4
602.629	599.2
603.039	601
603.45	617.4
603.86	595
604.271	612
604.703	597.4
605.114	594.2
605.525	593.8
605.935	604.2
606.346	621.8
606.757	604.6
607.168	601.4
607.579	596.8
607.99	612.2
608.402	604.8
608.813	605
609.224	593
609.636	592.6
610.047	599.4
610.48	603.6
610.892	607.2
611.303	607.6
611.715	596.6
612.127	589.4
612.539	594.4
612.95	603.4
613.362	583
613.774	583.8
614.186	595.2
614.599	593.8
615.011	602.6
615.423	589.4
615.835	592
616.248	587.8
616.66	604.4
617.073	584.4
617.485	597.2
617.898	609
618.311	602.6
618.723	581.4
619.136	618.8
619.549	617
619.962	623
620.375	599.6
620.788	600.4
621.201	590.8
621.614	605.8
622.028	598.2
622.441	599.4
622.854	601.4
623.268	595.6
623.681	605.8
624.095	598.6
624.509	601.8
624.922	597.6
625.336	591
625.728	599.4
626.142	599.4
626.556	609.6
626.97	601.4
627.384	591.8
627.799	603.2
628.213	603.4
628.627	598
629.041	597.2
629.456	589.2
629.87	599.4
630.285	601.4
630.699	599.8
631.093	596.8
631.507	595.4
631.922	598.2
632.337	607.8
632.752	589
633.167	590
633.582	590.8
633.997	588
634.412	583.8
634.806	598.8
635.221	586.4
635.637	607.6
636.052	594.2
636.468	599
636.883	615.2
637.299	590.4
637.715	586.4
638.109	596.8
638.525	580.4
638.941	607
639.357	594.6
639.773	605.8
640.189	594.6
640.584	593.6
641	603.8
641.416	577.2
641.832	592.8
642.249	585.8
642.665	587.8
643.06	603.4
643.477	606
643.894	575.6
644.31	582.6
644.727	590.2
645.123	595.4
645.54	590
645.957	596.2
646.374	602.8
646.77	593.2
647.187	619.8
647.604	591.6
648.021	579.8
648.439	585.6
648.835	593.4
649.252	589.6
649.67	597.4
650.088	595.6
650.484	600
650.902	594.4
651.32	598.6
651.738	584.4
652.134	595.6
652.552	611.6
652.971	598.2
653.389	593.2
653.786	602.8
654.204	616.4
654.622	580
655.019	590.2
655.438	596.8
655.857	592.4
656.275	593.4
656.673	584.8
657.091	597.6
657.51	581.2
657.908	592.4
658.327	604.4
658.746	572
659.144	589.8
659.563	604.8
659.982	586.6
660.38	579
660.8	596.2
661.219	604.8
661.617	591.4
662.037	590.8
662.457	600.6
662.855	582.4
663.275	622.2
663.695	591.4
664.094	595.6
664.514	588.6
664.934	584.8
665.333	602
665.753	581.4
666.152	575.6
666.572	582.4
666.993	600.2
667.392	589.4
667.812	596
668.212	592
668.632	607.4
669.053	583.4
669.453	594.8
669.874	589.4
670.273	594.4
670.694	579.4
671.116	612.6
671.515	600.4
671.937	589.6
672.337	584.6
672.758	597.2
673.158	599
673.58	574
673.98	595
674.402	602
674.824	585
675.224	586
675.646	576.8
676.047	587
676.469	590.4
676.869	600.2
677.292	586
677.693	590.6
678.115	585.6
678.516	591
678.939	591
679.34	587
679.762	604.8
680.164	595.6
680.586	580.4
680.988	587.4
681.411	608.8
681.812	581.8
682.236	583.6
682.637	583
683.061	581.6
683.462	594.4
683.864	585.6
684.288	591.4
684.69	582.2
685.114	593.4
685.516	598.6
685.94	576.2
686.342	596.4
686.766	584.8
687.168	582.6
687.571	606.6
687.995	587
688.398	579.8
688.822	586.2
689.225	610.6
689.628	610.6
690.052	595.6
690.456	592.4
690.88	583.6
691.284	569.6
691.687	586.4
692.112	581.2
692.515	580.2
692.919	591.6
693.344	585.2
693.747	581.4
694.173	583.6
694.577	599.6
694.98	589.2
695.406	584
695.81	592
696.214	589.2
696.64	587.2
697.044	589
697.448	590
697.874	585.6
698.279	575.6
698.684	578.2
699.11	577.2
699.514	576.8
699.919	579.6
700.324	573.8
700.75	590.2
701.156	584.8
701.561	596.6
701.987	595.4
702.393	592.2
702.798	598
703.203	593.4
703.63	582.2
704.036	581.6
704.442	585.4
704.847	585.6
705.274	587.8
705.68	594.6
706.086	588
706.492	587.6
706.92	587.8
707.326	599.8
707.732	578.6
708.139	579.8
708.545	578.6
708.973	576.8
709.38	590.4
709.786	572.6
710.193	602.6
710.6	588.4
711.028	579.4
711.435	583.4
711.842	586
712.249	584
712.656	583.2
713.064	594.2
713.492	573.2
713.9	580.8
714.307	591.6
714.715	590.6
715.123	587.8
715.53	592.6
715.938	595
716.367	588.2
716.775	584.6
717.184	590
717.592	587.2
718	597.2
718.408	616.6
718.816	627.4
719.225	589.4
719.633	589.6
720.042	582.2
720.472	583.6
720.881	614.8
721.29	600.4
721.699	587.6
722.108	590.8
722.517	591.6
722.926	577.4
723.335	603.2
723.744	586
724.154	593.2
724.563	583.4
724.973	587
725.382	592.6
725.792	585.4
726.202	579.8
726.612	609.2
727.022	581
727.432	585.6
779.813	585.6
780.223	633.2
780.634	576.8
781.044	583.8
781.454	590
781.865	602.2
782.276	578.8
782.686	587
783.097	580.4
783.508	582.4
783.919	587.4
784.33	597.4
784.741	600.2
785.152	580.4
785.563	570
785.974	574.4
786.386	604
786.776	584.4
787.188	578.8
787.599	575
788.011	599.6
788.423	592.4
788.835	585.8
789.247	573.6
789.659	578.6
790.071	580.6
790.483	623.6
790.874	578.6
791.286	593.6
791.699	581.4
792.111	581.4
792.524	574.8
792.937	580.4
793.349	579
793.741	579.2
794.154	578.6
794.567	595.2
794.98	591.2
795.393	571.4
795.785	597.6
796.198	579.8
796.612	585.6
797.026	582.8
797.439	565.2
797.831	577.6
798.245	577
798.659	579.2
799.073	580.2
799.487	577
799.88	591.6
800.294	576.4
800.708	588.2
801.123	586.4
801.516	600.8
801.93	572.8
802.345	567.2
802.76	579.2
803.153	599.6
803.568	591.4
803.983	586.6
804.377	586.4
804.792	576.4
805.207	569.8
805.601	583.6
806.016	619.6
806.432	574.6
806.826	603
807.242	596.4
807.658	591.2
808.052	577.6
808.468	584.4
808.884	579
809.279	580.4
809.695	592.6
810.111	607.4
810.506	590
810.922	596.8
811.339	577
811.734	592.6
812.151	578.6
812.546	580.4
812.963	577.4
813.38	590.6
813.776	584.8
814.193	599.8
814.589	575.2
815.006	587.6
815.402	572.2
815.82	578.6
816.237	577.2
816.633	579.8
817.051	575.2
817.448	590.2
817.866	579.2
818.262	599.8
818.68	580.2
819.077	584.8
819.495	585
819.892	616.4
820.311	573.2
820.708	584.8
821.127	575.8
821.524	602.4
821.943	578.8
822.34	592.6
822.759	587.6
823.157	586
823.576	596
823.974	592.8
824.393	637
824.791	584.6
825.189	577.2
825.609	579.2
826.007	587
826.427	567
826.826	577.6
827.246	587.8
827.644	575.8
828.043	594.8
828.463	579.6
828.862	590
829.261	585.2
829.682	566
830.081	590
830.502	577.8
830.901	589.4
831.301	597
831.722	574.4
832.121	584.2
832.521	574.8
832.943	577.8
833.342	582.2
833.742	566.8
834.164	572.8
834.564	572.4
834.965	582.2
835.386	573.6
835.787	574.8
836.188	584.2
836.588	590.2
837.01	583.6
837.411	579.2
837.812	584.4
838.213	584.8
838.636	575.8
839.037	640.6
839.438	574.2
839.84	588.2
840.263	582.6
840.664	587.6
841.066	582
841.468	583.6
841.891	582
842.293	590.4
842.695	588.8
843.098	597
843.5	576
843.902	584
844.326	583.2
844.729	585.4
845.131	592.8
845.534	579.6
845.937	594.8
846.34	595
846.764	578.4
847.167	582.8
847.571	571.4
847.974	576.6
848.377	580
848.781	628
849.184	598.4
849.588	577.4
849.992	571
850.396	576.2
850.821	590.2
851.225	584
851.63	572.8
852.034	595.8
852.438	585.6
852.843	662.2
853.247	576.6
853.652	569.6
854.057	598.8
854.462	580.8
854.867	596.8
855.272	612
855.677	588
856.082	577.2
856.487	566.8
856.893	580.8
857.298	580.4
857.704	577.6
858.11	582
858.516	589.4
858.922	583
859.328	588.4
859.734	580
860.14	582.8
860.525	583
860.931	573.4
861.338	584.2
861.745	584.2
862.151	585.8
862.558	580.8
862.965	582.6
863.372	575.6
863.779	578.6
864.186	604.8
864.572	582.4
864.98	599.2
865.387	608.4
865.795	571.4
866.203	593.2
866.61	573.6
867.018	592.6
867.405	582.2
867.813	582.4
868.221	585
868.63	575.2
869.038	586.2
869.425	614.6
869.834	581.4
870.243	574.2
870.652	579.6
871.039	577
871.448	580
871.857	588.8
872.266	590.6
872.654	588.2
873.064	587.2
873.473	595.8
873.883	580.6
874.271	576.6
874.681	592
875.091	574.4
875.48	583.6
875.89	607.6
876.3	577.6
876.689	574.8
877.1	581.2
877.51	581.8
877.9	600.6
878.31	576.4
878.721	616.2
879.111	583.2
879.522	572.6
879.933	576
880.323	572.4
880.734	575.8
881.125	577.2
881.536	581
881.948	572.4
882.338	577.4
882.75	590.6
883.141	574.2
883.553	583.4
883.944	602.8
884.356	588
884.769	573.6
885.16	581.6
885.573	576.2
885.964	568.8
886.377	578.2
886.768	570.6
887.181	580.6
887.573	575
887.987	583.2
888.378	596.8
888.792	589.6
889.184	630.8
889.598	570
889.99	585.2
890.383	577.8
890.797	574
891.19	592.4
891.604	571.4
891.997	569.2
892.411	574
892.805	578.8
893.198	569.4
893.613	563.6
894.006	578.6
894.421	577.4
894.815	577.6
895.209	580.6
895.624	620.8
896.018	593.2
896.412	574.4
896.828	577
897.222	587.8
897.617	583
898.033	598.4
898.427	583.6
898.822	579.4
899.239	572.6
899.634	565.8
900.029	590
900.424	572.6
900.841	564.6
901.236	585.6
901.632	580.8
902.027	629.8
902.445	587.8
902.841	570.8
903.237	575
903.633	584.8
904.05	585
904.447	587.6
904.843	589.6
905.24	580.2
905.636	567
906.033	578.8
906.451	597.2
906.848	576.2
907.246	583
907.643	578.8
908.04	578.4
908.438	598.4
908.835	586.6
909.254	574.6
909.652	584.6
910.05	583.2
910.448	571
910.846	579.2
911.244	569.8
911.643	580
912.041	579.8
912.44	591.4
912.839	573.6
913.237	572
913.636	570.2
914.035	587.2
914.434	580
914.834	587.4
915.233	589.2
915.633	573
916.032	573
916.432	571
916.832	588.6
917.232	574.4
917.632	572.4
918.032	584.2
918.432	577.4
918.833	576.8
919.233	581
919.634	575.2
920.035	590
920.436	575.4
920.837	583.2
921.238	570.8
921.639	568.8
922.019	583.4
922.42	581.6
922.822	583.4
923.224	580.8
923.625	578.2
924.027	571.2
924.429	596.6
924.81	574.6
925.212	576.6
925.615	575.8
926.017	576.2
926.42	587
926.801	583.4
927.204	577.8
927.607	588.4
928.01	599
928.413	579.2
928.795	561.6
929.199	572.6
929.602	572.8
930.006	569.8
930.388	565.8
930.792	578
931.196	572.6
931.579	614.6
931.983	572
932.388	631.8
932.771	577.2
933.176	569.2
933.58	581.6
933.964	583.4
934.369	568
934.774	580.8
935.158	568
935.563	575
935.947	578.4
936.353	582.2
936.759	571
937.143	577.6
937.549	570.8
937.934	587.8
938.34	588.2
938.746	566.6
939.131	572.8
939.538	569.2
939.923	578.4
940.33	573
940.716	572
941.123	580.6
941.508	589.8
941.916	589.8
942.302	590.8
942.709	572.2
943.096	573
943.503	582.2
943.89	583
944.298	575.8
944.685	605.2
945.072	573
945.48	579.2
945.867	572.2
946.276	571
946.663	603.2
947.051	592.6
947.46	591.2
947.848	584.8
948.257	570.6
948.645	582.6
949.033	573
949.443	568
949.831	613.4
950.22	583.4
950.63	581.2
951.018	621.8
951.407	575.4
951.796	562.6
952.207	583.6
952.596	585
952.985	568.4
953.375	610.6
953.786	565.6
954.176	564.8
954.566	582.4
954.956	573.8
955.367	569.6
955.758	599.2
956.148	567
956.539	587.6
956.929	574.8
957.341	566
957.732	578
958.123	582.4
958.515	570
958.906	584.6
959.297	575.6
959.689	575.4
960.102	571
960.494	575.4
960.886	581.6
961.278	584.2
961.67	602.4
962.062	610.4
962.455	575
962.847	573.8
963.24	565.6
963.633	583.4
964.026	569.8
964.419	580.6
964.812	588
965.206	575
965.599	585
965.993	571
966.386	578.8
966.78	585.4
967.174	585.2
967.569	574.4
967.963	574.2
968.357	580.2
968.752	566.4
969.146	581.8
969.541	572.6
969.936	582.8
970.331	582
970.705	580.4
971.1	575.4
971.496	586.4
971.892	572.8
972.287	576.8
972.683	574
973.079	576.6
973.454	598.6
973.85	578.6
974.247	577.4
974.643	599.6
975.04	590.2
975.415	577.6
975.812	568.8
976.209	573.6
976.607	564.8
976.982	581.6
977.38	585.8
977.778	577.4
978.175	570.6
978.552	580
978.95	573.8
979.348	593.4
979.725	619.4
980.123	577.8
980.522	568.6
980.899	568.8
981.298	574.6
981.697	569
982.075	568.8
982.474	569.8
982.852	576.6
983.251	578
983.651	578.2
984.029	581.2
984.429	572
984.808	568.8
985.208	573.2
985.609	569.4
985.987	572.2
986.388	571.4
986.768	584.2
987.168	568
987.548	578.4
987.949	576.6
988.329	573.4
988.731	560.8
989.111	571.8
989.491	578.6
989.893	564.4
990.273	580.2
990.676	570
991.057	570.2
991.459	580.8
991.84	577.4
992.221	567.8
992.624	592.4
993.006	585
993.388	574.8
993.791	584.8
994.173	579.4
994.576	610.2
994.959	565.4
995.341	572.2
995.724	564.6
996.128	575.6
996.511	582.8
996.894	570.4
997.298	569.6
997.681	578.4
998.065	574.8
998.448	570.6
998.854	587.2
999.237	568.4
999.621	578.8
1000.01	591.4
1000.39	584.4
1000.8	572.4
1001.18	585.6
1001.56	582
1001.95	587.8
1002.33	578
1002.72	570.4
1003.13	569
1003.51	574.8
1003.9	571.2
1004.28	584.8
1004.67	583.6
1005.06	572.8
1005.44	600.6
1005.83	571.2
1006.21	572.4
1006.6	568.2
1006.99	580.8
1007.37	589.2
1007.76	571.2
1060.12	569
1060.51	577
1060.89	583.2
1061.28	585.4
1061.67	595.6
1062.06	584.4
1062.45	578.2
1062.83	571.6
1063.22	583.4
1063.61	614.4
1064	579
1064.39	576.8
1064.78	575.6
1065.14	584.8
1065.53	580
1065.92	585.8
1066.31	565.6
1066.7	580.6
1067.09	592.4
1067.46	582.4
1067.85	574.2
1068.24	569.4
1068.63	570.2
1069.02	572
1069.39	576.8
1069.78	567.4
1070.17	569.8
1070.57	568.6
1070.93	565.4
1071.33	572.6
1071.72	574.6
1072.11	567.2
1072.48	577
1072.87	570.6
1073.26	571.8
1073.64	572.2
1074.03	555
1074.4	570.6
1074.79	568
1075.19	574.2
1075.56	579.6
1075.95	574.2
1076.34	569.8
1076.72	569.6
1077.11	575.2
1077.48	589.2
1077.88	568.8
1078.25	570.2
1078.64	577
1079.02	570.2
1079.41	575.8
1079.78	571.2
1080.18	565.6
1080.55	638.4
1080.95	564
1081.32	567.2
1081.72	568.6
1082.09	573.6
1082.49	566.4
1082.86	572.2
1083.24	555.8
1083.63	557
1084.01	575.8
1084.38	585.4
1084.78	568
1085.16	579.6
1085.55	583.2
1085.93	592.4
1086.31	571.2
1086.7	602.8
1087.08	571.8
1087.46	579.6
1087.83	567.6
1088.23	583.8
1088.61	569.8
1088.99	580.6
1089.36	572.6
1089.76	569.8
1090.14	583
1090.52	574.2
1090.9	577.6
1091.27	587.4
1091.67	602.6
1092.05	583.8
1092.43	561.4
1092.81	579.6
1093.19	576.6
1093.57	566.8
1093.95	560.8
1094.35	582.8
1094.73	589.6
1095.11	558.8
1095.49	572.4
1095.87	563.6
1096.25	589.2
1096.63	582.4
1097.01	568
1097.39	568.8
1097.77	569.6
1098.15	569.6
1098.53	568.8
1098.91	577
1099.29	568.6
1099.68	586.4
1100.06	576
1100.44	569.4
1100.82	576.2
1101.18	573.2
1101.56	575
1101.95	577.4
1102.33	576.4
1102.71	576.2
1103.1	568.4
1103.48	560.4
1103.86	567.2
1104.22	577.8
1104.61	573
1104.99	574.2
1105.38	558.6
1105.76	569.8
1106.12	574.2
1106.51	604.8
1106.89	579.2
1107.26	581.2
1107.64	589.8
1108.03	570.8
1108.41	573.6
1108.78	579.6
1109.16	576
1109.55	580.6
1109.91	566
1110.3	554.4
1110.69	590.6
1111.05	571.8
1111.44	572.4
1111.8	576.2
1112.19	571.8
1112.58	579.6
1112.94	567
1113.33	574
1113.7	567.6
1114.09	570.2
1114.45	569.8
1114.84	570.8
1115.21	582.6
1115.6	572.8
1115.96	575.6
1116.35	583.6
1116.72	573.6
1117.11	582
1117.48	574.8
1117.85	575.6
1118.24	589
1118.6	580.2
1118.99	557.8
1119.36	581.6
1119.73	568.8
1120.12	575.8
1120.49	566.4
1120.86	574.2
1121.25	570.2
1121.62	562.4
1121.99	557.4
1122.38	581.6
1122.76	572.4
1123.13	572.6
1123.5	572.8
1123.89	583.2
1124.26	561.6
1124.63	576.6
1125	561.4
1125.4	563.4
1125.77	568.2
1126.14	559.8
1126.51	565.2
1126.88	572
1127.26	563.4
1127.63	564.4
1128.02	565.2
1128.4	568
1128.77	576.2
1129.14	572.8
1129.52	573.4
1129.89	571.4
1130.26	557.2
1130.64	563
1131.01	569.6
