#lambda/nm	C1
208.295	509.2
208.67	463
209.045	433.2
209.419	426
209.794	607.4
210.169	596.4
210.544	725.8
210.919	619.6
211.295	609.2
211.67	618
212.045	618
212.421	619.2
212.796	655.4
213.172	607.8
213.547	609.8
213.923	606.2
214.299	612.4
214.675	621.2
215.051	628
215.427	629
215.803	643
216.179	621.4
216.555	613
216.932	615.4
217.308	619.2
217.684	621.6
218.061	624.4
218.438	611
218.814	608.4
219.191	626.4
219.568	609.4
219.945	605.6
220.322	620.4
220.699	628.2
221.076	621.4
221.453	619.4
221.83	610
222.208	604.6
222.585	615
222.962	612.8
223.34	618
223.717	616
224.095	611.8
224.473	620.8
224.851	613.2
225.229	602.4
225.607	627.6
225.985	611
226.363	616.2
226.741	610.4
227.119	606.4
227.497	626.2
227.876	605.4
228.254	627.6
228.633	617
229.011	616.6
229.39	614.4
229.769	626
230.148	627
230.527	634.4
230.905	614.4
231.284	613.4
231.664	612
232.043	633
232.422	614.6
232.801	609.4
233.181	622.8
233.56	613.8
233.94	617.4
234.319	600.8
234.699	612
235.079	661.4
235.458	654.2
235.838	634.2
236.218	602
236.598	610.2
236.978	608.6
237.358	607.6
237.738	611.2
238.119	616
238.499	610.6
238.88	609.4
239.26	627.4
239.641	604.4
240.021	608.2
240.402	611.8
240.783	609.2
241.163	612.4
241.544	612.2
241.925	607.6
242.306	616.2
242.687	618.6
243.069	616
243.45	610.4
243.831	613.8
244.212	608.6
244.594	639.2
244.975	624
245.357	617.8
245.739	611.2
246.12	624.2
246.502	634
246.884	610.2
247.266	607.8
247.648	612.4
248.03	630.4
248.412	618.6
248.794	623
249.176	614.2
249.559	619.2
249.941	612.4
250.323	599.2
250.706	603
251.089	611.8
251.471	609.8
251.854	613.6
252.237	609.8
252.62	618.2
253.002	605.2
253.385	617.4
253.769	624.6
254.152	611.2
254.535	624.4
254.918	601.4
255.301	615.4
255.685	611.6
256.068	608.8
256.452	638.8
256.835	624.2
257.219	619.6
257.603	622.8
257.986	608.8
258.37	615.4
258.754	601.6
259.138	617
259.522	622.4
259.906	612.8
260.29	617.2
260.675	608.6
261.059	614.6
261.443	608.2
261.828	621.2
262.212	621.2
262.597	605
262.981	614.6
263.366	618
263.751	612.4
264.136	609
264.521	617.4
264.906	604
265.291	634.2
265.676	610.6
266.061	622.6
266.446	633
266.831	610.2
267.217	626.4
267.602	620
267.987	614.6
268.373	612
268.759	624.6
269.144	620.2
269.53	622.8
269.916	611.2
270.302	611.4
270.688	625.2
271.074	616
271.46	620.6
271.846	649
272.232	620
272.618	600.4
273.004	610.8
273.391	627
273.777	626
274.164	623
274.55	623.4
274.937	616.4
275.324	614
275.71	622.8
276.097	621.4
276.484	607
276.871	612.8
277.258	623.4
277.645	607
278.032	614.6
278.419	608.2
278.807	615.2
279.194	607.4
279.581	614
279.969	617.4
280.356	613.2
280.744	616.6
281.131	645
281.519	625.2
281.907	610.2
282.295	611.6
282.682	629.4
283.07	622.2
283.458	630.4
283.846	619.2
284.235	625
284.623	627.8
285.011	612.8
285.399	615.8
285.788	613.2
286.176	604.2
286.565	629.6
286.953	612.8
287.342	607.6
287.731	613.8
288.119	608.8
288.508	615.8
288.897	616.6
289.286	602.6
289.675	627.6
290.064	630.2
290.453	609.2
290.821	613.8
291.21	627.6
291.599	612.4
291.989	607.4
292.378	627.6
292.768	634.4
293.157	622.6
293.547	632.4
293.936	613.8
294.326	612.6
294.716	619
295.106	609.6
295.496	621
295.886	616.6
296.276	621
296.666	607.2
297.056	615
297.446	608
297.836	636.4
298.227	608.2
298.617	622
299.008	622.2
299.398	619.8
299.789	609.4
300.179	628.8
300.57	628.2
300.961	624.8
301.352	616.2
301.742	618.4
302.133	619.6
302.524	617
302.915	614.4
303.307	606.6
303.698	628
304.089	619.4
304.48	611.8
304.872	616.6
305.263	621.4
305.655	610.6
306.046	620.4
306.438	628.2
306.829	613.4
307.221	642.4
307.613	628
308.005	631.8
308.397	631.6
308.789	644.2
309.181	650.2
309.573	633.4
309.965	633.2
310.357	611
310.749	631.2
311.142	609.8
311.534	615.8
311.926	630.6
312.319	616.2
312.711	610.4
313.104	629
313.497	616.4
313.889	661
314.282	635.4
314.675	644.8
315.068	626
315.461	631.4
315.854	647.4
316.247	629.2
316.64	618.6
317.033	616
317.405	629.6
317.798	616.4
318.192	625.8
318.585	605
318.979	628.6
319.372	611.2
319.766	614
320.16	624.8
320.553	640.2
320.947	642.2
321.341	619
321.735	614.8
322.129	606.4
322.523	646.6
322.917	616.4
323.311	623.4
323.705	613.6
324.099	618
324.494	641.2
324.888	638.8
325.282	617
325.677	628.2
326.071	631.6
326.466	630.2
326.861	622
327.255	636
327.65	633
328.045	645.2
328.44	625.6
328.835	619.6
329.23	616.2
329.625	641
330.02	615.2
330.415	632
330.81	621.4
331.206	621.8
331.601	621.2
331.996	624
332.37	639
332.766	602.4
333.161	643.4
333.557	620.6
333.953	614
334.348	986.8
334.744	620.4
335.14	615.2
335.536	616.8
335.932	626.6
336.328	613.4
336.724	621.8
337.12	609.2
337.516	622.8
337.913	615.4
338.309	625
338.705	606.8
339.102	627
339.498	612.8
339.895	629.4
340.291	613.4
340.688	627.6
341.085	605.2
341.481	616.6
341.878	617
342.275	638.2
342.672	608.8
343.069	613.6
343.466	598.6
343.842	628
344.239	608
344.636	617
345.033	607.6
345.431	607.8
345.828	614.2
346.225	614.2
346.623	647.2
347.02	605.8
347.418	622
347.816	627.2
348.213	607
348.611	617.6
349.009	608.6
349.407	621.6
349.805	601.8
350.203	602.4
350.601	622.4
350.999	600
351.397	666.4
351.795	618.4
352.193	622.8
352.57	614.6
352.969	631.2
353.367	604.4
353.766	610.6
354.164	610.4
354.563	627.6
354.961	606.4
355.36	607.8
355.759	610.6
356.158	605
356.557	609.2
356.956	611
357.355	592.2
357.754	628.2
358.153	619.8
358.552	630.8
358.951	605.2
359.35	620.8
359.75	613.4
360.149	611.4
360.527	602.8
360.926	606.6
361.326	614
361.726	613
362.125	602.6
362.525	621.4
362.925	614
363.325	611.8
363.724	617
364.124	611
364.524	610
364.924	616.8
365.324	613
365.725	593.8
366.125	615
366.525	613.8
366.904	599.6
367.304	603
367.705	627.4
368.105	624
368.506	609.2
368.906	605
369.307	613.2
369.708	615.6
370.108	600.2
370.509	614.4
370.91	600.4
371.311	610.4
371.712	605.2
372.113	604.8
372.514	604.8
372.894	610.8
373.295	607.6
373.696	614.2
374.097	621.2
374.499	639.2
374.9	619.2
375.301	595.6
375.703	612.6
376.105	602
376.506	616.2
376.908	616
377.309	606.6
377.711	610
378.113	600.8
378.493	606.6
378.895	602.4
379.297	614.2
379.699	595.2
380.102	614.8
380.504	596.4
380.906	599.6
381.308	625.2
381.71	614.4
382.113	611.8
382.515	597.6
382.918	607.6
383.299	604.2
383.701	620.2
384.104	611.8
384.507	586.8
384.909	601.4
385.312	597.6
385.715	608.6
386.118	611.8
386.521	595.8
386.924	610
387.327	603.4
387.709	602.4
388.112	595
388.515	610.6
388.918	608.4
389.322	609.2
389.725	603.6
390.129	624.4
390.532	616.6
390.936	608.8
391.339	599.2
391.743	609.4
392.125	601
392.529	617.6
392.933	618.6
393.337	611.2
393.74	609.6
394.144	606.8
394.548	592.6
394.953	610.8
395.357	622.8
395.761	607.2
396.144	606.6
396.548	603.6
396.952	616.4
397.357	602.4
397.761	604
398.166	604
398.57	610.8
398.975	605.4
399.379	609.6
399.763	651.6
400.168	605
400.572	607.4
400.977	610.8
401.382	628.8
401.787	613.6
402.192	618.8
402.597	632.6
403.002	599.6
403.386	631
403.791	637.2
404.197	603.4
404.602	607
405.007	602.6
405.413	611.6
405.818	617.4
406.224	605.8
406.608	608.6
407.014	600
407.42	619.2
407.825	604.2
408.231	618
408.637	613.8
409.043	623
409.449	601.8
409.834	602.8
410.24	614.2
410.646	630.2
411.052	624.8
411.458	607.8
411.865	619.2
412.271	626.6
412.677	612
413.062	612.2
413.469	601
413.875	633.6
414.282	623.6
414.689	617.2
415.095	617.4
415.502	609.8
415.888	606.8
416.294	589.8
416.701	647.6
417.108	609
417.515	623.2
417.923	616.4
418.33	632
418.715	617.8
419.123	607.8
419.53	612.8
419.937	617
420.345	625.4
420.752	604
421.16	626.6
421.546	609.8
421.953	613.6
422.361	607.2
422.769	604.6
423.177	605.4
423.585	638.8
423.992	629.2
424.379	614
424.787	626.8
425.195	633.2
425.603	608.8
426.011	626.8
426.419	621.4
426.806	612.8
427.214	616
427.623	625.2
428.031	631.4
428.44	609.4
428.848	621.6
429.235	631.6
429.644	622.4
430.053	610.4
430.461	628.8
430.87	638.8
431.279	618
431.666	606.8
432.075	615.6
432.484	607.8
432.893	614.6
433.302	640.2
433.711	655.4
434.099	614
434.508	615.6
434.918	601.2
435.327	629.4
435.737	621.4
436.125	623
436.534	635.4
436.944	628.4
437.353	634.2
437.763	654
438.173	627.8
438.561	649.8
438.971	629.6
439.381	643.4
439.791	659.6
440.201	630
440.589	657.2
440.999	667
441.409	665.6
441.819	653.8
442.23	679.4
442.619	685.4
443.029	679
443.439	684.4
443.85	696.6
444.26	704.4
444.649	694
445.06	690.2
445.471	690
445.881	703.4
446.292	715.4
446.682	723.2
447.092	695.4
447.503	757.2
447.914	698.8
448.325	710.2
448.715	711.2
449.126	704.8
449.537	713.8
449.948	722.2
450.338	720.4
450.75	739.2
451.161	730.8
451.572	738.2
451.984	735.8
452.374	721.4
452.786	736.8
453.197	741.6
453.609	740.8
453.999	731.6
454.411	728.4
454.823	742.4
455.235	746
455.647	737.2
456.037	744.4
456.449	721.6
456.862	741.6
457.274	739
457.665	740.6
458.077	754.4
458.489	770.4
458.902	738.6
459.293	752.8
459.705	755.2
460.118	737.8
460.53	752.4
460.921	737.2
461.334	753.8
461.747	748
462.16	756.8
462.551	767.2
462.964	762.6
463.377	734.8
463.79	752.8
464.182	755
464.595	749.8
465.008	761
465.421	763.2
465.813	759
466.226	768.8
466.64	761.4
467.053	805.8
467.445	775.8
467.859	782.8
468.272	767
468.686	769.8
469.078	757
469.492	752.8
469.906	772.8
470.298	762.8
470.712	746.4
471.126	822.2
471.54	754.4
471.933	755
472.347	754
472.761	757.4
473.175	748.2
473.568	754.8
473.982	749.2
474.397	757.6
474.79	758.4
475.204	768.8
475.619	764.2
476.033	758.2
476.426	755.6
476.841	756.4
477.256	783.6
477.649	746.6
478.064	739.4
478.479	748.2
478.872	751.8
479.287	748.2
479.702	751.4
480.118	755
480.511	754.2
480.927	755
481.342	765.8
481.736	760.2
482.151	753.2
482.566	765.4
482.96	755.8
483.376	768.6
483.792	741.4
484.186	751.8
484.602	755.8
485.017	756.6
485.412	752.8
485.827	748.8
486.243	747.8
486.638	778
487.054	751.6
487.47	768
487.865	745.8
488.281	749.8
488.697	737
489.092	750.6
489.508	731.4
489.925	752
490.32	732.6
490.736	752.2
491.153	745.4
491.548	747.8
491.964	756.4
492.381	726
492.776	738.8
493.193	736.2
493.61	735.8
494.006	733.8
494.422	741.8
494.84	735.4
495.235	741.4
495.652	732.6
496.069	725
496.465	719.6
496.883	728.6
497.3	752.4
497.696	732.6
498.113	728.8
498.509	732.8
498.927	715.4
499.344	726.2
499.741	707.6
500.158	727.2
500.576	727
500.973	725.8
501.39	701.4
501.787	703.8
502.205	720.2
502.623	715.2
503.02	709.2
503.438	716
503.856	716.2
504.253	710.8
504.671	715.8
505.068	709.6
505.486	707.6
505.905	733.8
506.302	710.6
506.72	718.6
507.118	693.6
507.536	695.8
507.955	707.6
508.352	708.8
508.771	702.8
509.169	703
509.587	694.2
510.006	696.2
510.404	683
510.823	688.6
511.221	691.4
511.64	692.2
512.038	699.6
512.457	702
512.877	684.6
513.275	679.8
513.694	682.6
514.092	675.6
514.512	697
514.91	707.2
515.33	683.6
515.749	685.2
516.148	685
516.568	683
516.966	682
517.386	680.8
517.785	683.4
518.205	675.2
518.603	665
519.024	668.8
519.444	687.6
519.843	684.8
520.263	684.2
520.662	684.6
521.082	669
521.481	682
521.902	675.6
522.301	666.2
522.722	669.4
523.121	672
523.542	664.8
523.963	671.4
524.362	671.2
524.783	677.4
525.183	670.2
525.604	673.4
526.003	657.8
526.425	656.2
526.824	670.8
527.246	669
527.646	664.4
528.067	663.6
528.467	663.8
528.888	662.2
529.289	655.8
529.71	665.8
530.11	659
530.532	654.4
530.932	649
531.354	644.6
531.755	682.8
532.176	660.2
532.577	653.4
532.999	650.8
533.4	641.8
533.822	661
534.223	664
534.645	653.4
535.046	652.2
535.468	638.8
535.869	667.4
536.292	646.6
536.693	673.6
537.115	652.8
537.516	648.8
537.939	642.2
538.34	667.2
538.742	655.2
539.165	643.2
539.566	648
539.989	639.8
540.391	639.6
540.814	638.6
541.216	649
541.639	642.6
542.041	646
542.464	640.6
542.866	630.4
543.268	644.8
543.691	646.2
544.093	648.2
544.517	656.4
544.919	625.4
545.343	660
545.745	636.4
546.147	639.4
546.571	646.4
546.974	619
547.398	630.8
547.8	646
548.224	631.6
548.627	634.6
549.03	643.2
549.454	627.2
549.857	622.4
550.281	627.4
550.684	624
551.087	656
551.512	646.4
551.915	641.2
552.34	635.4
552.743	628
553.146	635.4
553.571	635
553.975	645.2
554.399	625.2
554.803	681.2
555.207	629.2
555.632	623.8
556.036	632.8
556.461	618.6
556.865	631
557.268	623.2
557.694	626.8
558.098	641
558.502	634.8
558.927	617.4
559.332	624.6
559.736	626.4
560.162	629.4
560.566	632.2
560.992	628.4
561.396	625.2
561.801	626
562.227	623.6
562.631	626.8
563.036	622.2
563.462	628
563.867	624.2
564.272	612.6
564.698	623.2
565.103	621
565.508	638.2
565.935	617.4
566.34	620.2
566.745	628.4
567.172	610.2
567.577	638
567.982	637.4
568.409	629.4
568.815	609.6
569.22	612.6
569.626	621
570.053	595.4
570.459	625
570.865	621.8
571.292	620.2
571.698	616
572.104	603
572.531	609.8
572.937	623.4
573.343	611.8
573.75	598
574.177	614.2
574.583	628.6
574.99	613.2
575.396	618.4
575.824	608.4
576.231	620
576.637	604.2
577.065	634.2
577.472	607.6
577.879	607.4
578.286	630.2
578.714	615.8
579.121	616.6
579.528	606.8
579.935	615.4
580.364	617.2
580.771	597.8
581.178	598
581.585	610.2
582.014	621
582.421	609
582.829	596.6
583.236	618.8
583.644	598.4
584.073	611.8
584.481	612.4
584.889	597.6
585.296	612.8
585.726	611.8
586.134	602.8
586.542	605.4
586.95	631.8
587.358	603.2
587.787	607.6
588.196	621.4
588.604	602.4
589.012	609.8
589.421	601.2
589.851	603.6
590.259	609.4
590.668	596.2
591.076	642.4
591.485	597.8
591.894	604.2
592.324	620.4
592.733	618.8
593.142	592
593.551	596.4
593.96	645
594.369	594.4
594.8	595.6
595.209	606.2
595.618	596.2
596.028	593.4
596.437	601.4
596.847	601.4
597.256	605.8
597.687	611.4
598.097	606.2
598.507	597.6
598.917	610
599.327	604
599.736	596.2
600.146	609.4
600.556	605.8
600.988	611.8
601.398	600
601.808	606.2
602.219	585.4
602.629	602.6
603.039	605.8
603.45	633.8
603.86	597.2
604.271	606.8
604.703	602.4
605.114	603
605.525	597.4
605.935	607
606.346	628
606.757	605.2
607.168	596.4
607.579	592
607.99	605.6
608.402	600
608.813	606
609.224	597.6
609.636	595.8
610.047	600.8
610.48	601.8
610.892	603
611.303	601.8
611.715	597.8
612.127	593.6
612.539	593.6
612.95	601.2
613.362	590.2
613.774	591.2
614.186	591.2
614.599	597.8
615.011	600.8
615.423	590.4
615.835	592.2
616.248	589.2
616.66	606.8
617.073	599.6
617.485	594.6
617.898	603.2
618.311	595.8
618.723	588
619.136	623.4
619.549	601.6
619.962	624.6
620.375	593.2
620.788	600
621.201	589.6
621.614	606.4
622.028	601.2
622.441	598.4
622.854	611
623.268	584.6
623.681	600.6
624.095	599.6
624.509	606.8
624.922	602
625.336	588
625.728	600.4
626.142	611.6
626.556	615.6
626.97	595.6
627.384	591.4
627.799	600.2
628.213	604.8
628.627	589
629.041	587.4
629.456	591.8
629.87	594.6
630.285	608.8
630.699	602.4
631.093	595.6
631.507	598.2
631.922	601.4
632.337	606.6
632.752	584.4
633.167	597.2
633.582	596.2
633.997	589.4
634.412	591.6
634.806	591.6
635.221	582
635.637	600.8
636.052	578.2
636.468	593.4
636.883	605.4
637.299	584.8
637.715	582
638.109	595.4
638.525	586.4
638.941	603.4
639.357	586.2
639.773	597.4
640.189	583.4
640.584	590.4
641	587
641.416	575.4
641.832	589.8
642.249	588.6
642.665	589.8
643.06	607.6
643.477	604.2
643.894	583.8
644.31	592.4
644.727	590.4
645.123	587.4
645.54	583.4
645.957	596.4
646.374	607.2
646.77	594.8
647.187	626
647.604	590.4
648.021	588.2
648.439	582
648.835	592.6
649.252	592
649.67	593.8
650.088	596
650.484	593.6
650.902	595.4
651.32	594.8
651.738	595.2
652.134	594
652.552	617.4
652.971	601
653.389	595
653.786	610
654.204	607.6
654.622	579.8
655.019	596.2
655.438	593
655.857	590.6
656.275	602.8
656.673	582.8
657.091	606
657.51	577.8
657.908	605.2
658.327	597.6
658.746	582
659.144	594
659.563	601
659.982	599
660.38	582
660.8	585.8
661.219	608
661.617	585.8
662.037	593.4
662.457	602
662.855	579.4
663.275	625.8
663.695	593
664.094	591.2
664.514	594
664.934	582
665.333	597.6
665.753	591.8
666.152	581.8
666.572	575.2
666.993	600.4
667.392	587.8
667.812	583.6
668.212	589.4
668.632	600
669.053	586.8
669.453	597.4
669.874	588.2
670.273	592.8
670.694	581.2
671.116	599.2
671.515	600.6
671.937	590.4
672.337	586.6
672.758	586.6
673.158	594.2
673.58	579.8
673.98	597.4
674.402	598.2
674.824	598.2
675.224	586
675.646	578.4
676.047	585.2
676.469	582
676.869	588.4
677.292	594.8
677.693	579.2
678.115	587.2
678.516	594
678.939	591.2
679.34	588.6
679.762	596.6
680.164	586.8
680.586	579.8
680.988	594
681.411	610.4
681.812	584
682.236	583.6
682.637	577.8
683.061	582.4
683.462	595
683.864	577.4
684.288	591.8
684.69	582.2
685.114	592.8
685.516	600.6
685.94	579.4
686.342	595.8
686.766	582.4
687.168	587.2
687.571	602
687.995	589.2
688.398	579.8
688.822	588.2
689.225	598
689.628	619.4
690.052	589.8
690.456	591.2
690.88	588.6
691.284	580.2
691.687	588.2
692.112	582.8
692.515	582.6
692.919	587.8
693.344	594.6
693.747	588.2
694.173	588.6
694.577	592.8
694.98	585
695.406	593.4
695.81	588.4
696.214	584.6
696.64	597.6
697.044	594
697.448	595.8
697.874	587.2
698.279	592.8
698.684	578.6
699.11	583.6
699.514	585.2
699.919	584
700.324	585.2
700.75	590
701.156	585.2
701.561	596.2
701.987	590
702.393	600.2
702.798	600.8
703.203	580.8
703.63	595.6
704.036	590.6
704.442	589.4
704.847	579.4
705.274	586.2
705.68	589
706.086	604.6
706.492	584.2
706.92	584.8
707.326	591.6
707.732	581.6
708.139	583.4
708.545	581.4
708.973	583.6
709.38	589
709.786	581.2
710.193	605.2
710.6	581.8
711.028	577.6
711.435	594
711.842	592.2
712.249	576.8
712.656	590.8
713.064	593.8
713.492	576.6
713.9	582.8
714.307	593
714.715	581
715.123	583.8
715.53	593.8
715.938	606.8
716.367	596
716.775	589
717.184	575.2
717.592	594.4
718	601.8
718.408	626.2
718.816	633.2
719.225	588.2
719.633	589.8
720.042	571.8
720.472	587.8
720.881	613
721.29	590.8
721.699	583
722.108	590.2
722.517	590.8
722.926	580.2
723.335	598.4
723.744	586.4
724.154	588.4
724.563	588.6
724.973	591
725.382	590.8
725.792	581.6
726.202	574.2
726.612	606.6
727.022	581
727.432	583.2
779.813	578.6
780.223	631.2
780.634	586.6
781.044	578
781.454	581.4
781.865	602.4
782.276	577.6
782.686	607.2
783.097	576
783.508	581.4
783.919	585.2
784.33	589.6
784.741	598
785.152	589.4
785.563	569
785.974	574.2
786.386	590.6
786.776	585
787.188	577.2
787.599	567.2
788.011	585.8
788.423	580.8
788.835	581
789.247	580.4
789.659	571.6
790.071	582
790.483	636
790.874	578
791.286	586.8
791.699	582.2
792.111	593.4
792.524	589.4
792.937	587.2
793.349	578
793.741	573.4
794.154	586.8
794.567	607.4
794.98	584.2
795.393	574.4
795.785	604.2
796.198	588.6
796.612	586
797.026	577.4
797.439	569.2
797.831	585.6
798.245	574.8
798.659	576.6
799.073	580.2
799.487	578.6
799.88	587.8
800.294	583.6
800.708	585.6
801.123	583.8
801.516	602.8
801.93	570.2
802.345	571
802.76	576.2
803.153	605.6
803.568	604
803.983	586.2
804.377	592.2
804.792	574.2
805.207	570.6
805.601	579.8
806.016	622.4
806.432	577
806.826	620.4
807.242	587.6
807.658	586.4
808.052	582.6
808.468	577
808.884	584
809.279	581.8
809.695	602.6
810.111	608
810.506	584.6
810.922	606.6
811.339	568
811.734	596.8
812.151	581.4
812.546	584.4
812.963	581.4
813.38	580.8
813.776	583.8
814.193	602.8
814.589	578.4
815.006	585.6
815.402	580.4
815.82	580.4
816.237	582.4
816.633	583
817.051	579.6
817.448	591
817.866	579.4
818.262	604
818.68	585.8
819.077	583
819.495	591.8
819.892	621
820.311	578.4
820.708	575.2
821.127	578
821.524	600
821.943	582.4
822.34	597.8
822.759	585.2
823.157	584.2
823.576	600.4
823.974	587
824.393	626.6
824.791	570.2
825.189	571.6
825.609	573.6
826.007	578
826.427	569.6
826.826	577.8
827.246	583.2
827.644	565.8
828.043	594.6
828.463	575.6
828.862	595.8
829.261	593.8
829.682	566.8
830.081	586
830.502	576.4
830.901	587.6
831.301	593.4
831.722	569.2
832.121	591
832.521	577.6
832.943	576.8
833.342	580.8
833.742	575
834.164	581.8
834.564	567.6
834.965	582.8
835.386	589.8
835.787	579
836.188	588.6
836.588	587.4
837.01	576.4
837.411	570.4
837.812	587.4
838.213	588
838.636	582.2
839.037	649
839.438	581.4
839.84	585.8
840.263	589
840.664	586.6
841.066	586.6
841.468	579.8
841.891	573.6
842.293	602.6
842.695	590.8
843.098	595.8
843.5	578
843.902	590
844.326	583.4
844.729	583.6
845.131	589.2
845.534	588.2
845.937	605.6
846.34	596.6
846.764	579.4
847.167	588.8
847.571	579.4
847.974	584.8
848.377	576
848.781	628.4
849.184	598.8
849.588	584
849.992	580.8
850.396	589.4
850.821	605.6
851.225	592.6
851.63	584.2
852.034	600.6
852.438	585
852.843	612.2
853.247	573.4
853.652	580.4
854.057	597
854.462	586.4
854.867	588.2
855.272	622
855.677	590.6
856.082	572.2
856.487	569.4
856.893	589.6
857.298	579
857.704	577.8
858.11	580
858.516	575.8
858.922	581.6
859.328	594
859.734	587.4
860.14	589.6
860.525	591.8
860.931	577.6
861.338	574.4
861.745	582
862.151	586.2
862.558	589
862.965	579.6
863.372	578.8
863.779	581.2
864.186	597.2
864.572	582.2
864.98	596.2
865.387	614
865.795	574
866.203	590.6
866.61	574.8
867.018	586.8
867.405	584.8
867.813	578.6
868.221	576.4
868.63	575.8
869.038	589.4
869.425	611.8
869.834	582.6
870.243	580.2
870.652	571.4
871.039	575.8
871.448	573.4
871.857	588.8
872.266	585.2
872.654	584.4
873.064	579.6
873.473	582.8
873.883	586.6
874.271	574
874.681	592.6
875.091	572
875.48	596.6
875.89	597
876.3	581.8
876.689	572
877.1	576
877.51	580.6
877.9	602
878.31	572.8
878.721	611.6
879.111	584.4
879.522	578.6
879.933	569.4
880.323	567.2
880.734	565.2
881.125	580.4
881.536	578.6
881.948	558.8
882.338	573.8
882.75	587.4
883.141	578.8
883.553	579.6
883.944	599.8
884.356	594
884.769	576.6
885.16	576.4
885.573	572.2
885.964	578.4
886.377	579.6
886.768	561.6
887.181	578.2
887.573	571.8
887.987	578.8
888.378	593.2
888.792	592.6
889.184	630.4
889.598	574.6
889.99	578.8
890.383	576.2
890.797	573.2
891.19	587.4
891.604	572
891.997	572.8
892.411	573.8
892.805	581.2
893.198	577.4
893.613	573.2
894.006	580.8
894.421	565
894.815	573.8
895.209	579
895.624	623.4
896.018	590.2
896.412	577.6
896.828	579.4
897.222	584.4
897.617	575.2
898.033	599
898.427	586.8
898.822	574.6
899.239	570.4
899.634	572.8
900.029	591
900.424	568
900.841	572
901.236	591.4
901.632	577.8
902.027	639.6
902.445	581
902.841	581.4
903.237	581.2
903.633	591.8
904.05	597
904.447	587.4
904.843	591.4
905.24	579.4
905.636	573.8
906.033	575.2
906.451	584.4
906.848	577.8
907.246	579.6
907.643	579.6
908.04	583.8
908.438	600.4
908.835	584.6
909.254	582.6
909.652	585
910.05	571.6
910.448	572.2
910.846	580.8
911.244	564.2
911.643	582.2
912.041	574.6
912.44	593.4
912.839	577.4
913.237	568.8
913.636	572.8
914.035	583.4
914.434	568.2
914.834	590.6
915.233	589.2
915.633	571
916.032	574.8
916.432	565.4
916.832	597.8
917.232	576.8
917.632	569.2
918.032	575.8
918.432	576
918.833	575.4
919.233	565.6
919.634	569.6
920.035	578
920.436	571.6
920.837	588
921.238	576
921.639	575.2
922.019	582.4
922.42	587.6
922.822	584
923.224	572.4
923.625	575
924.027	582.6
924.429	600.4
924.81	575.4
925.212	583.8
925.615	575.8
926.017	576
926.42	589.4
926.801	586.4
927.204	580.2
927.607	583.4
928.01	597
928.413	593.8
928.795	565.2
929.199	570.2
929.602	586.2
930.006	566.6
930.388	568.8
930.792	581.4
931.196	581.8
931.579	612.4
931.983	570.8
932.388	631.2
932.771	582
933.176	566
933.58	581.6
933.964	585.6
934.369	567.4
934.774	576
935.158	576.6
935.563	578
935.947	585.8
936.353	583.4
936.759	578.8
937.143	582
937.549	585.4
937.934	590.8
938.34	598.4
938.746	572.8
939.131	577
939.538	576.8
939.923	581
940.33	574.8
940.716	583.4
941.123	575.4
941.508	586.4
941.916	598.4
942.302	587.2
942.709	564.4
943.096	573
943.503	576.2
943.89	574.2
944.298	582.8
944.685	599.4
945.072	576.6
945.48	592.8
945.867	572
946.276	567.6
946.663	596.6
947.051	591.2
947.46	590.2
947.848	585.6
948.257	579.4
948.645	578.6
949.033	579.6
949.443	574.8
949.831	617.6
950.22	575.6
950.63	590.2
951.018	611.6
951.407	576.8
951.796	572.2
952.207	587.6
952.596	582.8
952.985	566.6
953.375	613.6
953.786	581
954.176	572.4
954.566	589.8
954.956	567.2
955.367	575.6
955.758	606.4
956.148	567
956.539	589.8
956.929	568.8
957.341	571.8
957.732	574
958.123	585.4
958.515	575
958.906	586
959.297	572
959.689	573.4
960.102	572
960.494	582.4
960.886	586.2
961.278	577.6
961.67	601
962.062	615.6
962.455	574.8
962.847	570.8
963.24	572.8
963.633	574
964.026	568.8
964.419	574.8
964.812	582
965.206	572
965.599	588
965.993	582.6
966.386	572.6
966.78	581.8
967.174	591
967.569	565
967.963	564.8
968.357	570
968.752	576
969.146	568.6
969.541	566.8
969.936	570.8
970.331	578.4
970.705	571.8
971.1	566.6
971.496	582.6
971.892	566.4
972.287	570
972.683	583.2
973.079	566.8
973.454	586.8
973.85	571.4
974.247	575.4
974.643	604.6
975.04	572
975.415	574
975.812	567
976.209	576
976.607	571.2
976.982	588.2
977.38	589.2
977.778	575.2
978.175	576.2
978.552	573.6
978.95	587.4
979.348	582.4
979.725	620.4
980.123	569
980.522	575.6
980.899	567.4
981.298	566.6
981.697	579.6
982.075	574
982.474	566.2
982.852	581.2
983.251	570.6
983.651	574.8
984.029	571.4
984.429	571.6
984.808	562.6
985.208	574.8
985.609	568
985.987	562
986.388	573.8
986.768	578.6
987.168	575.6
987.548	581.6
987.949	581.6
988.329	583.4
988.731	568.8
989.111	578.6
989.491	572.6
989.893	577.6
990.273	582.4
990.676	569.2
991.057	567.2
991.459	575.8
991.84	579.6
992.221	568.2
992.624	593.6
993.006	582.6
993.388	575.4
993.791	585.4
994.173	580
994.576	607
994.959	570.8
995.341	570.2
995.724	578.6
996.128	570.2
996.511	585
996.894	578.6
997.298	568.6
997.681	580.2
998.065	576.8
998.448	568.6
998.854	588
999.237	568.4
999.621	590.6
1000.01	583.8
1000.39	568.6
1000.8	568.8
1001.18	580.4
1001.56	574.4
1001.95	585
1002.33	586.6
1002.72	575.2
1003.13	570.8
1003.51	578.8
1003.9	570.8
1004.28	587.4
1004.67	565.8
1005.06	570.8
1005.44	597.4
1005.83	556.6
1006.21	570
1006.6	573
1006.99	588.6
1007.37	585.4
1007.76	580.2
1060.12	574
1060.51	573.4
1060.89	579.2
1061.28	573.8
1061.67	583.4
1062.06	583.2
1062.45	577.6
1062.83	567.2
1063.22	586.6
1063.61	615.4
1064	584
1064.39	573.6
1064.78	572.8
1065.14	590
1065.53	583.4
1065.92	573.8
1066.31	567.4
1066.7	581.4
1067.09	587.2
1067.46	584.6
1067.85	574.2
1068.24	575.6
1068.63	585.4
1069.02	572.4
1069.39	583.6
1069.78	579.2
1070.17	581.2
1070.57	562.2
1070.93	580.4
1071.33	570.2
1071.72	577.2
1072.11	568.2
1072.48	577.6
1072.87	582.8
1073.26	577.2
1073.64	573.6
1074.03	569.8
1074.4	571.8
1074.79	572
1075.19	581.2
1075.56	576.8
1075.95	578.2
1076.34	577.4
1076.72	573.2
1077.11	580.2
1077.48	581
1077.88	584.2
1078.25	571.2
1078.64	587.4
1079.02	583.2
1079.41	584
1079.78	578.4
1080.18	571.6
1080.55	639.8
1080.95	566.4
1081.32	565
1081.72	576.2
1082.09	571.4
1082.49	573.8
1082.86	578.2
1083.24	568.2
1083.63	567.8
1084.01	576
1084.38	584.2
1084.78	569.8
1085.16	575.6
1085.55	586.6
1085.93	592.6
1086.31	564.6
1086.7	601.2
1087.08	577
1087.46	577.8
1087.83	572.2
1088.23	582.6
1088.61	567.2
1088.99	585.2
1089.36	572
1089.76	574
1090.14	581
1090.52	586.4
1090.9	571.4
1091.27	594.4
1091.67	603.2
1092.05	576.8
1092.43	562
1092.81	587.8
1093.19	582.2
1093.57	579
1093.95	578.4
1094.35	583.8
1094.73	584
1095.11	573.4
1095.49	574
1095.87	573.8
1096.25	594.4
1096.63	581.6
1097.01	570.6
1097.39	579.6
1097.77	577
1098.15	571.4
1098.53	571
1098.91	573.4
1099.29	580.4
1099.68	595
1100.06	575
1100.44	574.2
1100.82	577.6
1101.18	580.4
1101.56	568.6
1101.95	570.8
1102.33	578.8
1102.71	580.6
1103.1	571
1103.48	561.8
1103.86	564.2
1104.22	578.4
1104.61	568.4
1104.99	571
1105.38	561
1105.76	571.2
1106.12	571.6
1106.51	603.4
1106.89	582.8
1107.26	571.2
1107.64	580.8
1108.03	572.4
1108.41	576.8
1108.78	569
1109.16	568.8
1109.55	576.4
1109.91	555.8
1110.3	550
1110.69	586.8
1111.05	562
1111.44	574.6
1111.8	567.8
1112.19	573.4
1112.58	573.6
1112.94	572.4
1113.33	566.2
1113.7	558.4
1114.09	563.8
1114.45	566
1114.84	574
1115.21	573.4
1115.6	561
1115.96	577.8
1116.35	579.2
1116.72	564
1117.11	583
1117.48	567.2
1117.85	573.6
1118.24	588
1118.6	576.8
1118.99	559.6
1119.36	577.2
1119.73	579.4
1120.12	572.4
1120.49	573.4
1120.86	581
1121.25	573.2
1121.62	567.4
1121.99	568
1122.38	598.6
1122.76	568.8
1123.13	568.4
1123.5	575.8
1123.89	583.8
1124.26	562.8
1124.63	582.8
1125	567
1125.4	561.2
1125.77	570.8
1126.14	554.6
1126.51	564.4
1126.88	574.6
1127.26	573
1127.63	556.6
1128.02	571.4
1128.4	568
1128.77	574.6
1129.14	573.4
1129.52	575.8
1129.89	578
1130.26	567
1130.64	562.8
1131.01	564
