#lambda/nm	C1
208.295	506.8
208.67	467.8
209.045	427.2
209.419	426.6
209.794	617.2
210.169	598.8
210.544	717.2
210.919	612.2
211.295	598.2
211.67	613.6
212.045	610.6
212.421	614.2
212.796	649
213.172	610
213.547	616.2
213.923	613.2
214.299	605.8
214.675	625.8
215.051	616.6
215.427	623.2
215.803	635.2
216.179	617
216.555	604
216.932	619
217.308	609.8
217.684	606.4
218.061	621
218.438	618.4
218.814	603.2
219.191	612.6
219.568	603.2
219.945	612.2
220.322	612.6
220.699	624.4
221.076	619
221.453	621.6
221.83	610.6
222.208	613.8
222.585	603.8
222.962	618
223.34	618
223.717	615.4
224.095	608
224.473	620.4
224.851	607
225.229	599.8
225.607	628
225.985	617.6
226.363	609.6
226.741	618
227.119	614.8
227.497	627.2
227.876	600.4
228.254	623.2
228.633	625.8
229.011	615.6
229.39	616.8
229.769	613
230.148	624
230.527	633.2
230.905	614.8
231.284	616
231.664	613.8
232.043	626.8
232.422	625.2
232.801	608.4
233.181	617.2
233.56	613.2
233.94	623.2
234.319	601
234.699	618
235.079	659
235.458	653.4
235.838	629
236.218	611.8
236.598	608.8
236.978	611.8
237.358	612.2
237.738	619.8
238.119	629
238.499	602.2
238.88	617.8
239.26	625.6
239.641	608.2
240.021	611.2
240.402	615.4
240.783	617.2
241.163	615.2
241.544	612.6
241.925	615.4
242.306	631.2
242.687	616.6
243.069	614.8
243.45	619
243.831	604.2
244.212	613.2
244.594	649
244.975	624.4
245.357	619
245.739	618.8
246.12	609.8
246.502	622.6
246.884	605.2
247.266	614.6
247.648	619
248.03	641.8
248.412	619.4
248.794	616.8
249.176	611
249.559	631.2
249.941	600.6
250.323	604.8
250.706	614.6
251.089	615.4
251.471	621.4
251.854	617.8
252.237	618
252.62	627.8
253.002	621.8
253.385	613.2
253.769	626.2
254.152	613.4
254.535	618.6
254.918	606.8
255.301	619.8
255.685	616.4
256.068	611.8
256.452	628.6
256.835	623
257.219	627.4
257.603	636.2
257.986	599.6
258.37	618
258.754	604.6
259.138	624.4
259.522	625.6
259.906	624
260.29	624.6
260.675	605.4
261.059	610
261.443	606.8
261.828	617
262.212	613.4
262.597	605.2
262.981	610.4
263.366	623.8
263.751	616
264.136	613
264.521	617.6
264.906	600
265.291	623
265.676	613.8
266.061	622.6
266.446	630.8
266.831	613.4
267.217	637
267.602	614.8
267.987	628.4
268.373	617.6
268.759	630
269.144	628.4
269.53	617.4
269.916	613.4
270.302	614
270.688	627.6
271.074	614.6
271.46	629.8
271.846	638.6
272.232	611.8
272.618	604.2
273.004	603
273.391	633.2
273.777	618.2
274.164	620.4
274.55	631.6
274.937	617
275.324	607.8
275.71	623.8
276.097	620
276.484	607
276.871	614.6
277.258	624.8
277.645	602.8
278.032	614.4
278.419	609.6
278.807	623.4
279.194	611.8
279.581	612.8
279.969	622.8
280.356	620.8
280.744	609.8
281.131	647.4
281.519	626.2
281.907	610.2
282.295	611.6
282.682	634.4
283.07	619.8
283.458	622.2
283.846	628
284.235	627.8
284.623	625.6
285.011	608.4
285.399	631.6
285.788	620
286.176	605.8
286.565	633
286.953	611.2
287.342	616.6
287.731	612.8
288.119	607.6
288.508	606.2
288.897	613.6
289.286	600.8
289.675	622
290.064	625
290.453	613.8
290.821	618.6
291.21	628.6
291.599	614.6
291.989	618
292.378	621.6
292.768	633.8
293.157	625.4
293.547	618.6
293.936	613.8
294.326	609
294.716	619.2
295.106	613.2
295.496	628.8
295.886	632.6
296.276	617.4
296.666	615.6
297.056	622.2
297.446	602.2
297.836	628.8
298.227	610
298.617	617.8
299.008	627.8
299.398	616.6
299.789	612.6
300.179	625.8
300.57	637
300.961	613.2
301.352	610.8
301.742	624.8
302.133	617.4
302.524	620.6
302.915	621.2
303.307	607
303.698	630.6
304.089	623.8
304.48	613.6
304.872	625.2
305.263	615.6
305.655	617.8
306.046	628.8
306.438	624.4
306.829	617
307.221	629
307.613	625.2
308.005	632.2
308.397	626.2
308.789	628
309.181	647.4
309.573	635.6
309.965	627
310.357	623.8
310.749	631.2
311.142	616
311.534	617
311.926	629.4
312.319	620.4
312.711	611.8
313.104	632.8
313.497	615.8
313.889	654.2
314.282	633.4
314.675	636.8
315.068	619.4
315.461	618.6
315.854	649.2
316.247	620.6
316.64	621
317.033	621.8
317.405	622.6
317.798	620.6
318.192	622.6
318.585	610.4
318.979	627.4
319.372	612.2
319.766	617.6
320.16	632.6
320.553	634.4
320.947	637.6
321.341	613.6
321.735	621.2
322.129	608.2
322.523	637.6
322.917	613.8
323.311	621
323.705	610.8
324.099	623.2
324.494	635
324.888	638.2
325.282	615.6
325.677	631.4
326.071	629.8
326.466	626.6
326.861	628.4
327.255	623.8
327.65	630
328.045	628.2
328.44	626.4
328.835	620
329.23	602.4
329.625	647.2
330.02	611.8
330.415	635.6
330.81	627.8
331.206	623.6
331.601	609.6
331.996	628.8
332.37	642.2
332.766	615.8
333.161	644.2
333.557	617
333.953	620.6
334.348	926.4
334.744	613.6
335.14	617.8
335.536	616.8
335.932	631.4
336.328	614.2
336.724	626
337.12	615.8
337.516	621.6
337.913	614.6
338.309	628.4
338.705	617.8
339.102	619.8
339.498	610
339.895	632.6
340.291	613
340.688	627.2
341.085	613
341.481	617.2
341.878	611.8
342.275	631.2
342.672	611.6
343.069	612
343.466	599
343.842	633
344.239	621.8
344.636	616.8
345.033	612.6
345.431	607.6
345.828	620
346.225	613.4
346.623	646.2
347.02	621.8
347.418	630
347.816	629.4
348.213	609.4
348.611	620.2
349.009	615.8
349.407	613.2
349.805	601.6
350.203	607.2
350.601	631.2
350.999	616.4
351.397	669.8
351.795	622.6
352.193	618.8
352.57	625.2
352.969	626.6
353.367	612.4
353.766	597.8
354.164	604.6
354.563	626.4
354.961	603.6
355.36	606.8
355.759	615.8
356.158	606.2
356.557	602.6
356.956	605.8
357.355	595.6
357.754	613.6
358.153	623.4
358.552	635.2
358.951	614.8
359.35	630.8
359.75	605
360.149	610.4
360.527	601.8
360.926	601.2
361.326	617.6
361.726	606.8
362.125	608.2
362.525	623.2
362.925	616.4
363.325	617.4
363.724	616.4
364.124	601.2
364.524	604
364.924	606.4
365.324	619.6
365.725	598
366.125	618
366.525	612
366.904	602.2
367.304	595.4
367.705	630.8
368.105	624.8
368.506	610.6
368.906	610.4
369.307	608.2
369.708	613.4
370.108	592.8
370.509	614.4
370.91	601.4
371.311	611.4
371.712	607.4
372.113	605.2
372.514	596
372.894	605.6
373.295	602.4
373.696	621.6
374.097	611.4
374.499	637.6
374.9	618.8
375.301	600.4
375.703	613.2
376.105	602.8
376.506	610
376.908	619.6
377.309	613.6
377.711	611
378.113	609
378.493	616.4
378.895	606.2
379.297	618.4
379.699	604.8
380.102	611.2
380.504	608.2
380.906	614.6
381.308	631.6
381.71	611.2
382.113	612
382.515	604
382.918	617.2
383.299	607.6
383.701	628.2
384.104	617.2
384.507	595.2
384.909	612.4
385.312	596.6
385.715	595.4
386.118	608
386.521	597
386.924	625.2
387.327	606.6
387.709	600.6
388.112	591.2
388.515	603.4
388.918	609
389.322	614.8
389.725	608.6
390.129	630.4
390.532	617.2
390.936	606.8
391.339	597.4
391.743	617.4
392.125	596.6
392.529	614.8
392.933	618
393.337	621.8
393.74	606.2
394.144	613
394.548	602.6
394.953	603.2
395.357	614.8
395.761	609.4
396.144	620.2
396.548	617.2
396.952	603.4
397.357	614
397.761	612.8
398.166	601.8
398.57	599.8
398.975	599.6
399.379	608.4
399.763	656.8
400.168	610.8
400.572	608.2
400.977	605.8
401.382	622
401.787	617.8
402.192	626.8
402.597	628.2
403.002	596.2
403.386	633.4
403.791	624.8
404.197	610.8
404.602	612.6
405.007	608.8
405.413	607
405.818	602.6
406.224	600.2
406.608	605.4
407.014	607.8
407.42	623.4
407.825	608.4
408.231	624.8
408.637	616
409.043	626
409.449	606.6
409.834	605.8
410.24	609.4
410.646	621.2
411.052	626.8
411.458	614.2
411.865	607.6
412.271	611.6
412.677	609.8
413.062	622.8
413.469	596.2
413.875	631
414.282	623.6
414.689	607.4
415.095	618
415.502	605.4
415.888	606.6
416.294	602.2
416.701	645.8
417.108	609.4
417.515	615.2
417.923	609
418.33	630.4
418.715	614.6
419.123	603.8
419.53	604
419.937	613.8
420.345	623.8
420.752	614.4
421.16	625
421.546	612.2
421.953	613.4
422.361	597
422.769	611.6
423.177	608.8
423.585	636.2
423.992	628.4
424.379	625.2
424.787	617
425.195	630.6
425.603	617.4
426.011	624.2
426.419	616.4
426.806	609.8
427.214	610.2
427.623	626
428.031	630.6
428.44	611
428.848	618.6
429.235	624.4
429.644	619
430.053	604.8
430.461	623.4
430.87	628.8
431.279	621
431.666	612.8
432.075	622.2
432.484	617.6
432.893	610
433.302	632.4
433.711	656
434.099	617.2
434.508	618.2
434.918	612.8
435.327	631.8
435.737	627
436.125	623.4
436.534	620.4
436.944	631.8
437.353	634.4
437.763	652
438.173	626.4
438.561	656
438.971	625.4
439.381	641
439.791	654
440.201	634.8
440.589	669.2
440.999	666.4
441.409	673.2
441.819	663
442.23	689.2
442.619	685
443.029	675
443.439	691.2
443.85	696.4
444.26	718.2
444.649	707.4
445.06	696.2
445.471	693
445.881	700.8
446.292	722
446.682	719
447.092	710.2
447.503	768
447.914	721.6
448.325	713.2
448.715	719
449.126	719.4
449.537	721.8
449.948	729
450.338	732.8
450.75	744.4
451.161	745
451.572	736.6
451.984	736
452.374	733.2
452.786	741.4
453.197	736.4
453.609	758.6
453.999	724.8
454.411	736.6
454.823	749.4
455.235	757.2
455.647	746.2
456.037	762.4
456.449	743.6
456.862	748.2
457.274	762
457.665	750.6
458.077	769.2
458.489	787.6
458.902	747.2
459.293	771.8
459.705	762.4
460.118	759.8
460.53	770
460.921	759.6
461.334	777.8
461.747	774.8
462.16	784.8
462.551	791
462.964	776
463.377	751.6
463.79	766.2
464.182	779.6
464.595	774.2
465.008	783.8
465.421	783.8
465.813	773.4
466.226	772.4
466.64	784.2
467.053	821.6
467.445	788.2
467.859	813.6
468.272	775.4
468.686	799.4
469.078	786
469.492	779.8
469.906	787
470.298	793.6
470.712	784.4
471.126	848.4
471.54	776.8
471.933	775.8
472.347	794.6
472.761	795
473.175	785.4
473.568	784.8
473.982	779.8
474.397	784.2
474.79	781.4
475.204	789.6
475.619	786.2
476.033	793.2
476.426	790
476.841	780.4
477.256	808.4
477.649	776.2
478.064	787.8
478.479	790.6
478.872	780.8
479.287	775
479.702	781.8
480.118	785.2
480.511	779
480.927	783
481.342	782.4
481.736	793.6
482.151	784
482.566	789
482.96	793.8
483.376	800.2
483.792	774.4
484.186	790.4
484.602	786.6
485.017	785.8
485.412	780.2
485.827	788.2
486.243	784.6
486.638	795.6
487.054	791.8
487.47	795.8
487.865	766.2
488.281	773.6
488.697	778.8
489.092	767
489.508	752
489.925	783.6
490.32	768
490.736	777.6
491.153	769.8
491.548	772.6
491.964	789
492.381	754.2
492.776	773.8
493.193	772
493.61	777
494.006	771.2
494.422	774
494.84	761
495.235	769.8
495.652	764.8
496.069	768.6
496.465	749.4
496.883	760.4
497.3	770
497.696	753
498.113	774
498.509	744.8
498.927	750.6
499.344	738.4
499.741	740.6
500.158	758
500.576	760.6
500.973	741
501.39	735.4
501.787	730.8
502.205	748.6
502.623	738.8
503.02	733.8
503.438	746.4
503.856	744.4
504.253	747
504.671	738.8
505.068	729.6
505.486	724.6
505.905	755
506.302	735.6
506.72	733.6
507.118	717.8
507.536	726.6
507.955	730.4
508.352	729.6
508.771	726.2
509.169	732.8
509.587	716.8
510.006	718.8
510.404	718.2
510.823	713.2
511.221	714
511.64	717.2
512.038	726.8
512.457	716.6
512.877	712
513.275	703.2
513.694	708.4
514.092	704.2
514.512	707
514.91	719
515.33	706.6
515.749	709.2
516.148	709.6
516.568	699
516.966	700.2
517.386	691.6
517.785	700.6
518.205	698
518.603	682.4
519.024	690.2
519.444	698.6
519.843	704
520.263	707.8
520.662	702.6
521.082	691.4
521.481	691.2
521.902	688.4
522.301	701.2
522.722	687.8
523.121	681.2
523.542	683.8
523.963	688.8
524.362	690.8
524.783	685.6
525.183	679.4
525.604	682.6
526.003	677.6
526.425	675.2
526.824	682
527.246	685.2
527.646	688
528.067	684.4
528.467	672
528.888	678.2
529.289	677.8
529.71	675
530.11	663.4
530.532	661.8
530.932	668.2
531.354	665
531.755	697.4
532.176	675.6
532.577	669.8
532.999	673.2
533.4	666.2
533.822	670.4
534.223	676.6
534.645	663.8
535.046	659.8
535.468	661
535.869	675.6
536.292	658
536.693	695.8
537.115	673.2
537.516	661.6
537.939	656.2
538.34	676.8
538.742	677.2
539.165	662.8
539.566	665.8
539.989	657.6
540.391	657
540.814	661.8
541.216	654.4
541.639	647.2
542.041	665.2
542.464	655.2
542.866	655.6
543.268	647.6
543.691	654.4
544.093	656
544.517	680
544.919	646.6
545.343	671
545.745	644.4
546.147	662
546.571	647.6
546.974	640
547.398	653
547.8	666.4
548.224	649
548.627	634.4
549.03	658.2
549.454	637.4
549.857	639.4
550.281	632.4
550.684	644.2
551.087	650
551.512	646.8
551.915	651
552.34	647.4
552.743	637.8
553.146	651.4
553.571	643
553.975	672.2
554.399	630.4
554.803	689
555.207	636
555.632	637.4
556.036	642.6
556.461	634.6
556.865	633
557.268	639
557.694	635.8
558.098	636
558.502	638.8
558.927	631.8
559.332	642
559.736	639.8
560.162	632.2
560.566	626.8
560.992	641
561.396	626
561.801	616.2
562.227	630.2
562.631	629.2
563.036	631.8
563.462	627.2
563.867	632.6
564.272	609.2
564.698	623.4
565.103	619.6
565.508	641.8
565.935	625.2
566.34	622
566.745	635
567.172	619.4
567.577	642.4
567.982	632.4
568.409	640.6
568.815	619.6
569.22	618
569.626	626.4
570.053	601.8
570.459	631
570.865	634.8
571.292	626
571.698	628.2
572.104	616
572.531	619
572.937	628.8
573.343	621.4
573.75	618.8
574.177	622
574.583	628.6
574.99	614.8
575.396	622.4
575.824	617
576.231	629.4
576.637	606.8
577.065	640
577.472	620.6
577.879	614
578.286	631.4
578.714	604.2
579.121	618.6
579.528	631
579.935	633.6
580.364	614
580.771	609.4
581.178	609.4
581.585	614.6
582.014	622.4
582.421	612
582.829	611.6
583.236	624.2
583.644	606.4
584.073	608
584.481	611.8
584.889	604.2
585.296	616.6
585.726	617.8
586.134	608.8
586.542	601.8
586.95	628.8
587.358	596.8
587.787	604.4
588.196	623.6
588.604	602.8
589.012	606.2
589.421	601.8
589.851	598.4
590.259	607.6
590.668	605.6
591.076	647
591.485	602.6
591.894	614.8
592.324	624.4
592.733	623.6
593.142	595.2
593.551	604.4
593.96	642.2
594.369	607.2
594.8	600.2
595.209	608.4
595.618	589.8
596.028	599.8
596.437	596.8
596.847	605.6
597.256	600.4
597.687	614
598.097	602
598.507	597
598.917	602.2
599.327	611.8
599.736	609.4
600.146	609.2
600.556	611.4
600.988	624
601.398	601.6
601.808	626
602.219	596
602.629	606.6
603.039	609.4
603.45	637.2
603.86	602.8
604.271	619.6
604.703	604.8
605.114	603.4
605.525	604.8
605.935	602.6
606.346	625.8
606.757	596.2
607.168	593.4
607.579	600.4
607.99	605.8
608.402	609.4
608.813	606.8
609.224	597.2
609.636	592.6
610.047	596.8
610.48	599
610.892	602.2
611.303	611.2
611.715	599.8
612.127	593.4
612.539	593.2
612.95	604
613.362	584.4
613.774	595.2
614.186	596
614.599	592
615.011	608
615.423	601
615.835	601.8
616.248	585.8
616.66	601.6
617.073	588.2
617.485	596.8
617.898	608
618.311	602.8
618.723	593.4
619.136	620.2
619.549	613.4
619.962	618.4
620.375	592.2
620.788	600
621.201	604.2
621.614	604.4
622.028	598.6
622.441	601.8
622.854	607.6
623.268	592.8
623.681	600.6
624.095	601.6
624.509	604
624.922	606.2
625.336	597.4
625.728	603.2
626.142	612
626.556	626.2
626.97	610.2
627.384	589.2
627.799	595.4
628.213	608.6
628.627	599.6
629.041	602
629.456	598
629.87	602.6
630.285	604.2
630.699	605.8
631.093	592.2
631.507	599.4
631.922	605
632.337	610.4
632.752	584.8
633.167	596.2
633.582	599.8
633.997	589.8
634.412	592
634.806	589
635.221	589.2
635.637	611.8
636.052	584.6
636.468	597.2
636.883	612
637.299	588.4
637.715	584.6
638.109	591.2
638.525	578.4
638.941	609
639.357	595.4
639.773	602.8
640.189	595.2
640.584	590
641	600.6
641.416	573.6
641.832	599.8
642.249	593
642.665	597.2
643.06	590.2
643.477	598.2
643.894	577.6
644.31	593
644.727	588.2
645.123	591.4
645.54	578.2
645.957	598.2
646.374	608.2
646.77	594.4
647.187	624.2
647.604	589.4
648.021	580
648.439	585.2
648.835	589.6
649.252	603
649.67	591.2
650.088	595.2
650.484	606
650.902	606.2
651.32	604.6
651.738	590.4
652.134	601.4
652.552	617.8
652.971	607.8
653.389	590.2
653.786	606
654.204	605.4
654.622	590.2
655.019	596.4
655.438	604.8
655.857	602.6
656.275	597.2
656.673	586.2
657.091	602.4
657.51	583.8
657.908	604.4
658.327	606
658.746	574.8
659.144	585.4
659.563	605.2
659.982	595.6
660.38	579.8
660.8	595.2
661.219	599.2
661.617	596.2
662.037	587.8
662.457	599.2
662.855	579.6
663.275	622.2
663.695	596
664.094	584.2
664.514	586.8
664.934	585.4
665.333	593.6
665.753	596.2
666.152	579.8
666.572	591
666.993	612.8
667.392	585
667.812	581.8
668.212	593.8
668.632	605.4
669.053	591.6
669.453	587.8
669.874	594.6
670.273	594.2
670.694	585.8
671.116	604.8
671.515	601.8
671.937	589
672.337	592
672.758	586.2
673.158	591.8
673.58	581.2
673.98	590.8
674.402	608.2
674.824	596
675.224	587.6
675.646	586.6
676.047	589.6
676.469	586.8
676.869	604.8
677.292	595.6
677.693	585.2
678.115	589.6
678.516	593.2
678.939	592
679.34	589
679.762	607
680.164	596.6
680.586	585.2
680.988	591.8
681.411	614.6
681.812	583
682.236	589
682.637	581
683.061	583
683.462	591.2
683.864	585.2
684.288	595
684.69	590.6
685.114	603.8
685.516	598
685.94	583.2
686.342	595.6
686.766	584.6
687.168	591.4
687.571	606.4
687.995	586.6
688.398	582
688.822	592.6
689.225	606.8
689.628	611.8
690.052	594.4
690.456	594.6
690.88	587.8
691.284	584.2
691.687	599.6
692.112	583.2
692.515	582.2
692.919	587.8
693.344	590.8
693.747	588
694.173	587.8
694.577	606
694.98	592.8
695.406	585.6
695.81	597.6
696.214	596
696.64	588.8
697.044	595
697.448	595.4
697.874	585.6
698.279	590.8
698.684	585.6
699.11	587.8
699.514	586.4
699.919	587.2
700.324	574
700.75	595.2
701.156	583.6
701.561	593
701.987	597
702.393	589.2
702.798	604
703.203	585.8
703.63	580
704.036	585.8
704.442	583.2
704.847	581
705.274	580.6
705.68	588.4
706.086	597.4
706.492	578
706.92	589.4
707.326	588.6
707.732	579.4
708.139	584.2
708.545	578.4
708.973	578
709.38	587.2
709.786	572.8
710.193	604.6
710.6	594.4
711.028	581.8
711.435	588.8
711.842	588.2
712.249	580.8
712.656	589.2
713.064	594
713.492	580
713.9	588.2
714.307	596.4
714.715	583.6
715.123	592
715.53	596.2
715.938	589
716.367	588
716.775	588
717.184	576.4
717.592	580
718	593
718.408	620.6
718.816	635.2
719.225	596
719.633	592.4
720.042	577
720.472	585.2
720.881	610.8
721.29	595.6
721.699	579
722.108	591.4
722.517	594.8
722.926	585
723.335	600.2
723.744	584.8
724.154	593.6
724.563	579.4
724.973	593
725.382	584
725.792	575.8
726.202	575
726.612	602
727.022	587.4
727.432	584.4
779.813	581.2
780.223	626.4
780.634	575
781.044	575
781.454	586.6
781.865	597
782.276	579.4
782.686	590.8
783.097	591.2
783.508	578
783.919	590.6
784.33	593
784.741	600.8
785.152	582.4
785.563	571.8
785.974	585.4
786.386	599.8
786.776	584.6
787.188	592
787.599	570.6
788.011	597.6
788.423	586.6
788.835	571
789.247	586.2
789.659	580
790.071	584.4
790.483	619
790.874	589.6
791.286	597.8
791.699	579.4
792.111	585.2
792.524	587.2
792.937	588
793.349	573.4
793.741	577.4
794.154	583
794.567	599.6
794.98	583
795.393	571
795.785	597.2
796.198	586.4
796.612	597.6
797.026	583.8
797.439	566.8
797.831	582.4
798.245	571.6
798.659	578.2
799.073	580.8
799.487	580.4
799.88	586.4
800.294	588
800.708	582.2
801.123	587.6
801.516	607.6
801.93	572.2
802.345	577
802.76	587.6
803.153	601.2
803.568	600.8
803.983	589.4
804.377	593.2
804.792	568.6
805.207	571.6
805.601	593.4
806.016	624.4
806.432	580.4
806.826	621.8
807.242	597.4
807.658	586.2
808.052	578.8
808.468	582
808.884	570.6
809.279	588
809.695	588
810.111	602.2
810.506	586.2
810.922	606.4
811.339	577.4
811.734	585.2
812.151	579.4
812.546	565.6
812.963	580
813.38	591
813.776	581.2
814.193	603.8
814.589	589.8
815.006	578.4
815.402	579.6
815.82	586.4
816.237	584.2
816.633	593.6
817.051	572.6
817.448	592
817.866	572.8
818.262	608.4
818.68	579.6
819.077	581.8
819.495	588
819.892	620.8
820.311	574.6
820.708	581
821.127	575.6
821.524	592.2
821.943	584.8
822.34	593.8
822.759	590
823.157	588.4
823.576	594.8
823.974	588
824.393	637.4
824.791	576.2
825.189	571.8
825.609	583.6
826.007	592.6
826.427	571
826.826	584.2
827.246	585
827.644	568
828.043	597.6
828.463	577.8
828.862	592.8
829.261	599
829.682	573.2
830.081	591
830.502	575
830.901	581
831.301	604
831.722	572
832.121	580.6
832.521	588
832.943	587.8
833.342	583.4
833.742	573
834.164	574.2
834.564	581.8
834.965	585.8
835.386	581.6
835.787	576.8
836.188	579.8
836.588	589.6
837.01	586.8
837.411	581.2
837.812	586.6
838.213	592.6
838.636	574
839.037	655.8
839.438	586.8
839.84	599
840.263	594.8
840.664	587.4
841.066	591.6
841.468	585.4
841.891	578.4
842.293	596.8
842.695	588.8
843.098	595.6
843.5	578.6
843.902	589.4
844.326	590
844.729	579.6
845.131	595
845.534	584.4
845.937	597.2
846.34	599.2
846.764	581.8
847.167	588.6
847.571	581
847.974	581.4
848.377	588.6
848.781	633.6
849.184	597.8
849.588	575.4
849.992	572.2
850.396	582.8
850.821	600
851.225	581.6
851.63	580.8
852.034	600.2
852.438	584
852.843	611.6
853.247	564
853.652	568.8
854.057	598.4
854.462	589.4
854.867	587.8
855.272	606.4
855.677	581.2
856.082	582.8
856.487	577.6
856.893	586.6
857.298	575.2
857.704	578.2
858.11	587.6
858.516	590.6
858.922	585.6
859.328	594.4
859.734	577
860.14	586.6
860.525	582.2
860.931	576.8
861.338	580.4
861.745	592.4
862.151	599
862.558	591.2
862.965	576
863.372	583.2
863.779	579.6
864.186	603.4
864.572	583.8
864.98	607.6
865.387	611
865.795	574.2
866.203	598.4
866.61	576.4
867.018	593
867.405	590
867.813	582.2
868.221	582.4
868.63	575.6
869.038	602.4
869.425	620
869.834	587.8
870.243	571.4
870.652	578.6
871.039	578
871.448	578.8
871.857	588.6
872.266	584.4
872.654	580.2
873.064	586.6
873.473	594.6
873.883	578.4
874.271	578
874.681	593.4
875.091	563.6
875.48	584.4
875.89	600.6
876.3	580.2
876.689	569.4
877.1	586.8
877.51	579
877.9	608.8
878.31	578
878.721	608.8
879.111	585.8
879.522	579
879.933	570.2
880.323	578
880.734	569.8
881.125	582.2
881.536	586.4
881.948	570.8
882.338	574
882.75	591.4
883.141	577.2
883.553	590.2
883.944	600.6
884.356	580.8
884.769	578.2
885.16	588.2
885.573	585
885.964	572
886.377	582.6
886.768	577.8
887.181	580.2
887.573	575.6
887.987	585.6
888.378	590.2
888.792	581.4
889.184	625
889.598	572.4
889.99	569
890.383	578.4
890.797	573.6
891.19	587.8
891.604	575.2
891.997	566
892.411	576
892.805	568.6
893.198	575.8
893.613	562
894.006	579.8
894.421	570.4
894.815	576
895.209	572.8
895.624	612
896.018	610.2
896.412	587.4
896.828	577.2
897.222	580.6
897.617	580.8
898.033	607.8
898.427	582.8
898.822	582.4
899.239	580
899.634	572.4
900.029	597.6
900.424	570
900.841	571.4
901.236	585.4
901.632	586.4
902.027	641.2
902.445	581.2
902.841	574.8
903.237	575.4
903.633	583.6
904.05	585
904.447	577.6
904.843	585.2
905.24	581.2
905.636	567.8
906.033	569.8
906.451	594.6
906.848	569.2
907.246	576.4
907.643	586
908.04	582.4
908.438	603.8
908.835	593
909.254	578
909.652	592
910.05	577.8
910.448	575
910.846	582.4
911.244	566
911.643	583.8
912.041	583
912.44	592.8
912.839	577
913.237	567
913.636	571.8
914.035	578.8
914.434	581
914.834	585.4
915.233	585.8
915.633	576.6
916.032	575.8
916.432	576.8
916.832	590.2
917.232	569.6
917.632	577.8
918.032	584.8
918.432	575
918.833	586.8
919.233	578.6
919.634	568.2
920.035	587.8
920.436	571.8
920.837	578
921.238	573
921.639	579.4
922.019	575.8
922.42	579
922.822	589.6
923.224	580.6
923.625	576.4
924.027	578.2
924.429	596.2
924.81	586.4
925.212	589
925.615	579.6
926.017	580.2
926.42	587.8
926.801	572.8
927.204	578.4
927.607	582.2
928.01	598.6
928.413	580
928.795	566.2
929.199	576.4
929.602	573.4
930.006	573
930.388	569.8
930.792	579
931.196	576
931.579	619.2
931.983	579
932.388	632.2
932.771	576.8
933.176	568.6
933.58	585
933.964	587
934.369	568.2
934.774	582.6
935.158	584
935.563	575.2
935.947	583.4
936.353	592
936.759	583.2
937.143	581.8
937.549	585.6
937.934	593.8
938.34	603.2
938.746	571.2
939.131	578.6
939.538	569.4
939.923	576
940.33	569.6
940.716	583.2
941.123	579.4
941.508	586.8
941.916	590
942.302	578.2
942.709	571
943.096	569
943.503	580
943.89	579.6
944.298	569.6
944.685	602.8
945.072	570.2
945.48	590.4
945.867	574.4
946.276	573.8
946.663	597.6
947.051	589.6
947.46	586.6
947.848	574.8
948.257	577.8
948.645	580
949.033	568.8
949.443	574.4
949.831	613.2
950.22	577.4
950.63	583.4
951.018	610
951.407	580.6
951.796	579.6
952.207	588
952.596	591.4
952.985	572.2
953.375	607.8
953.786	577.6
954.176	566.8
954.566	583.2
954.956	565.4
955.367	577.6
955.758	600.8
956.148	568.2
956.539	592.2
956.929	569.4
957.341	569.8
957.732	575.2
958.123	586.2
958.515	574
958.906	585.8
959.297	582.8
959.689	578
960.102	569
960.494	582.2
960.886	585
961.278	577.4
961.67	599.4
962.062	618
962.455	578.8
962.847	571.8
963.24	572.4
963.633	573.8
964.026	564
964.419	579
964.812	585.2
965.206	565.6
965.599	572.4
965.993	573.8
966.386	575.6
966.78	586.4
967.174	580.4
967.569	574.4
967.963	573.4
968.357	565.8
968.752	572.6
969.146	570.2
969.541	567.6
969.936	579.2
970.331	577
970.705	580.6
971.1	575.2
971.496	586.6
971.892	566
972.287	580.8
972.683	569.6
973.079	578.6
973.454	591
973.85	577.2
974.247	578.2
974.643	604.2
975.04	572.4
975.415	569.6
975.812	564.6
976.209	582.6
976.607	563.8
976.982	584
977.38	598.8
977.778	578.6
978.175	572.4
978.552	582.4
978.95	584.8
979.348	580.8
979.725	627
980.123	579.2
980.522	574.2
980.899	573.4
981.298	571
981.697	585.2
982.075	575.2
982.474	574.4
982.852	582.4
983.251	582.4
983.651	577.8
984.029	584.8
984.429	580.8
984.808	569.2
985.208	572.8
985.609	572.8
985.987	566.4
986.388	574.8
986.768	586.6
987.168	569
987.548	579.4
987.949	580.6
988.329	591
988.731	561
989.111	584.6
989.491	576
989.893	580.4
990.273	591
990.676	579
991.057	572.4
991.459	580.8
991.84	581.8
992.221	569.2
992.624	592.6
993.006	580.6
993.388	581
993.791	586
994.173	584.4
994.576	604.6
994.959	569.8
995.341	575.8
995.724	570.4
996.128	569.4
996.511	579.4
996.894	572.8
997.298	572.6
997.681	586
998.065	579
998.448	565.4
998.854	587.8
999.237	570.6
999.621	584.4
1000.01	587.4
1000.39	581.8
1000.8	569.6
1001.18	585
1001.56	582.8
1001.95	580.2
1002.33	581.6
1002.72	571.6
1003.13	575
1003.51	576.6
1003.9	574.4
1004.28	591.6
1004.67	569.4
1005.06	585
1005.44	610.4
1005.83	568.4
1006.21	585.8
1006.6	574.6
1006.99	584.8
1007.37	580.6
1007.76	579.6
1060.12	568
1060.51	573.2
1060.89	576
1061.28	586.4
1061.67	595.2
1062.06	574
1062.45	581.6
1062.83	570.4
1063.22	582
1063.61	614.4
1064	585.6
1064.39	572.8
1064.78	568.4
1065.14	584.2
1065.53	582
1065.92	575.2
1066.31	568.4
1066.7	581.6
1067.09	582.6
1067.46	576.2
1067.85	574.4
1068.24	577.4
1068.63	582.8
1069.02	578.8
1069.39	580.8
1069.78	573.2
1070.17	577.6
1070.57	573
1070.93	581
1071.33	576.6
1071.72	581.4
1072.11	573.2
1072.48	574.4
1072.87	579.2
1073.26	570.4
1073.64	572
1074.03	567.2
1074.4	574.2
1074.79	573.6
1075.19	587.2
1075.56	580.6
1075.95	572.6
1076.34	568.4
1076.72	575.8
1077.11	585
1077.48	584.6
1077.88	578.2
1078.25	573.8
1078.64	578.8
1079.02	574
1079.41	569.4
1079.78	573.8
1080.18	569.8
1080.55	635.8
1080.95	566.8
1081.32	567.8
1081.72	577.6
1082.09	576.8
1082.49	562.8
1082.86	581.2
1083.24	562.2
1083.63	565
1084.01	575.6
1084.38	577.8
1084.78	567.2
1085.16	581.8
1085.55	587.6
1085.93	595.8
1086.31	558.4
1086.7	601.8
1087.08	576.2
1087.46	572.2
1087.83	563.6
1088.23	585.2
1088.61	573.2
1088.99	575.4
1089.36	572.2
1089.76	572.2
1090.14	570
1090.52	575.6
1090.9	570.4
1091.27	590.2
1091.67	596.2
1092.05	579.4
1092.43	575.4
1092.81	574.6
1093.19	587
1093.57	574.8
1093.95	570.8
1094.35	581.2
1094.73	575.6
1095.11	572.6
1095.49	567.6
1095.87	572
1096.25	586.6
1096.63	588.4
1097.01	570.4
1097.39	579
1097.77	580.6
1098.15	566.4
1098.53	566.6
1098.91	578.8
1099.29	575.2
1099.68	596
1100.06	590.6
1100.44	569
1100.82	570.2
1101.18	584.2
1101.56	572.2
1101.95	570.2
1102.33	569
1102.71	581.2
1103.1	571.8
1103.48	562.6
1103.86	574.4
1104.22	577.4
1104.61	579.8
1104.99	568.8
1105.38	567.6
1105.76	579.8
1106.12	570.4
1106.51	611
1106.89	581.4
1107.26	578
1107.64	584.2
1108.03	566.4
1108.41	569.6
1108.78	579.6
1109.16	570.2
1109.55	573.6
1109.91	571.2
1110.3	563
1110.69	587.2
1111.05	570
1111.44	567.2
1111.8	586.4
1112.19	573.6
1112.58	581.4
1112.94	565.4
1113.33	569.4
1113.7	566.6
1114.09	573.6
1114.45	562.2
1114.84	567.6
1115.21	579.2
1115.6	563.4
1115.96	580.8
1116.35	581.8
1116.72	564.6
1117.11	583.4
1117.48	568.4
1117.85	572.8
1118.24	584.8
1118.6	572.2
1118.99	567
1119.36	572.4
1119.73	569.6
1120.12	575.4
1120.49	570
1120.86	571.4
1121.25	573.4
1121.62	560.4
1121.99	574.4
1122.38	588.8
1122.76	573
1123.13	566.6
1123.5	584.6
1123.89	583
1124.26	559.8
1124.63	575.2
1125	574.2
1125.4	564.2
1125.77	568.6
1126.14	556.6
1126.51	575.8
1126.88	581.4
1127.26	567.6
1127.63	558.8
1128.02	568.8
1128.4	562.6
1128.77	577.2
1129.14	580.4
1129.52	571.4
1129.89	584.4
1130.26	566
1130.64	566
1131.01	572.2
