#lambda/nm	C1
208.295	514.2
208.67	466.8
209.045	428.2
209.419	424.8
209.794	609.6
210.169	597.8
210.544	716
210.919	620.4
211.295	613.4
211.67	623.6
212.045	613
212.421	615.4
212.796	654.6
213.172	608
213.547	616
213.923	613.4
214.299	611.2
214.675	621.4
215.051	625.6
215.427	628.2
215.803	640.2
216.179	631.2
216.555	602.6
216.932	636.8
217.308	620.4
217.684	616.4
218.061	622.6
218.438	622
218.814	613.6
219.191	621
219.568	610.8
219.945	617.2
220.322	624
220.699	617.4
221.076	627.2
221.453	620.4
221.83	610.8
222.208	605.2
222.585	617.6
222.962	616
223.34	625.2
223.717	616
224.095	617.8
224.473	620.4
224.851	610.4
225.229	608.8
225.607	640.4
225.985	606.8
226.363	615.6
226.741	623.2
227.119	614
227.497	631
227.876	604.2
228.254	623
228.633	622
229.011	618.4
229.39	623.2
229.769	623.6
230.148	621
230.527	634
230.905	614.2
231.284	617.6
231.664	611.4
232.043	628.8
232.422	628.4
232.801	619.6
233.181	620.8
233.56	612.2
233.94	613.6
234.319	605.6
234.699	616
235.079	658.8
235.458	653.8
235.838	640.8
236.218	606.6
236.598	614
236.978	606.6
237.358	615.6
237.738	613.6
238.119	621.6
238.499	609.8
238.88	617.4
239.26	636
239.641	604.6
240.021	618.8
240.402	614.4
240.783	612.4
241.163	608.6
241.544	612.2
241.925	613
242.306	636.2
242.687	619
243.069	615.2
243.45	622.4
243.831	604.2
244.212	603
244.594	656.2
244.975	624
245.357	616.8
245.739	602.4
246.12	616
246.502	624.2
246.884	613
247.266	607.2
247.648	617.4
248.03	633.4
248.412	622.8
248.794	618.4
249.176	610.2
249.559	631
249.941	609.4
250.323	599.6
250.706	607
251.089	619.8
251.471	618.2
251.854	617.6
252.237	613.8
252.62	620.6
253.002	615
253.385	615.8
253.769	628.8
254.152	618.6
254.535	616
254.918	605.4
255.301	606.4
255.685	608.4
256.068	606.8
256.452	646.2
256.835	623.8
257.219	608
257.603	627.4
257.986	613.6
258.37	625
258.754	605.6
259.138	619
259.522	631.2
259.906	616.2
260.29	620.2
260.675	607.6
261.059	615.2
261.443	603.8
261.828	622.2
262.212	625
262.597	602.4
262.981	618
263.366	625.4
263.751	620
264.136	615.4
264.521	612.2
264.906	612.4
265.291	628
265.676	612.8
266.061	618.2
266.446	637
266.831	617.8
267.217	639.4
267.602	630.8
267.987	618.4
268.373	618.4
268.759	630.8
269.144	626
269.53	619.4
269.916	613
270.302	620.2
270.688	623.6
271.074	621.2
271.46	626.2
271.846	648.2
272.232	615.6
272.618	615
273.004	607.6
273.391	631.4
273.777	628.2
274.164	616.2
274.55	630.8
274.937	614.6
275.324	616.6
275.71	628.4
276.097	615.6
276.484	605.8
276.871	613.2
277.258	622.6
277.645	607.2
278.032	615.8
278.419	620.4
278.807	622.6
279.194	612.6
279.581	609.8
279.969	624.6
280.356	612.4
280.744	615.4
281.131	642.6
281.519	626.4
281.907	613.6
282.295	612.2
282.682	629.6
283.07	615.6
283.458	629.6
283.846	620.8
284.235	636
284.623	631.6
285.011	613.8
285.399	622.4
285.788	616.2
286.176	605.6
286.565	633.8
286.953	609.6
287.342	611.2
287.731	610.8
288.119	605.6
288.508	617.6
288.897	613.8
289.286	606.2
289.675	621.2
290.064	628.4
290.453	613
290.821	615
291.21	624.4
291.599	614.4
291.989	618.2
292.378	619.4
292.768	637.6
293.157	617.4
293.547	623.6
293.936	619.2
294.326	615
294.716	626.4
295.106	613.6
295.496	620.6
295.886	626.4
296.276	616.8
296.666	617
297.056	611.6
297.446	608.6
297.836	637
298.227	620
298.617	616.8
299.008	629.6
299.398	613.4
299.789	616.4
300.179	615.2
300.57	628.6
300.961	611.8
301.352	616.2
301.742	621.8
302.133	616.6
302.524	612.8
302.915	618.8
303.307	610
303.698	626.6
304.089	622.4
304.48	614
304.872	613.8
305.263	621.8
305.655	613.4
306.046	626.8
306.438	625.4
306.829	612.6
307.221	630.2
307.613	634.6
308.005	627.2
308.397	632
308.789	638
309.181	637.6
309.573	639.8
309.965	622.4
310.357	622
310.749	634.8
311.142	602.4
311.534	603.2
311.926	626.6
312.319	613.6
312.711	608.2
313.104	633.8
313.497	629.2
313.889	658.4
314.282	630
314.675	642.2
315.068	616.2
315.461	621.4
315.854	655.6
316.247	619.2
316.64	622.4
317.033	618.8
317.405	616.8
317.798	621.2
318.192	620.6
318.585	618.6
318.979	625.6
319.372	602.6
319.766	619
320.16	636.2
320.553	630.2
320.947	640.8
321.341	619.6
321.735	619.4
322.129	610.8
322.523	641.4
322.917	605
323.311	623.2
323.705	623.2
324.099	620.4
324.494	639
324.888	635.2
325.282	615.2
325.677	636.2
326.071	631.4
326.466	626.6
326.861	618.6
327.255	632
327.65	629.4
328.045	634.8
328.44	620.8
328.835	623.2
329.23	604.6
329.625	637
330.02	613.4
330.415	640.6
330.81	618.4
331.206	623.4
331.601	615.8
331.996	632.4
332.37	638.4
332.766	616.6
333.161	642.6
333.557	611.6
333.953	613.2
334.348	983.8
334.744	620.2
335.14	605.6
335.536	615
335.932	633
336.328	617
336.724	629.4
337.12	619
337.516	623.2
337.913	611.8
338.309	631.8
338.705	603.4
339.102	628.2
339.498	611.4
339.895	627.2
340.291	613.8
340.688	633.2
341.085	603.2
341.481	610
341.878	615.8
342.275	631
342.672	598.4
343.069	610.4
343.466	601.4
343.842	623.4
344.239	607.4
344.636	615.6
345.033	603.2
345.431	606
345.828	615.6
346.225	613.6
346.623	650.2
347.02	620.2
347.418	617.6
347.816	625.8
348.213	608
348.611	617.8
349.009	606
349.407	620
349.805	610.2
350.203	601
350.601	623.4
350.999	607.2
351.397	671.4
351.795	613.4
352.193	623.6
352.57	628.6
352.969	628.2
353.367	610
353.766	610
354.164	615.2
354.563	616.8
354.961	611.6
355.36	607.6
355.759	613.8
356.158	606
356.557	606.2
356.956	604
357.355	600.6
357.754	616.6
358.153	611.6
358.552	634.6
358.951	603.8
359.35	617.6
359.75	612
360.149	604
360.527	594.6
360.926	603.4
361.326	617
361.726	613.6
362.125	607.4
362.525	614
362.925	609
363.325	610.6
363.724	612
364.124	607.2
364.524	604.6
364.924	611.6
365.324	623.2
365.725	592.2
366.125	619.8
366.525	610
366.904	594.8
367.304	594.8
367.705	629.6
368.105	624.8
368.506	609.6
368.906	604.4
369.307	612.8
369.708	605.2
370.108	600.8
370.509	625.6
370.91	605.6
371.311	613.6
371.712	621
372.113	605.2
372.514	597.4
372.894	618
373.295	608
373.696	623.2
374.097	621
374.499	635.4
374.9	607.6
375.301	600.4
375.703	613.4
376.105	609.2
376.506	617.2
376.908	614.2
377.309	617.6
377.711	613
378.113	607
378.493	612.8
378.895	611.4
379.297	623.4
379.699	599.4
380.102	617.6
380.504	605.8
380.906	607.4
381.308	636.2
381.71	605.4
382.113	620
382.515	606.8
382.918	611.4
383.299	606.2
383.701	622.4
384.104	607
384.507	590.8
384.909	605.2
385.312	599.4
385.715	608.2
386.118	609
386.521	593.4
386.924	625.6
387.327	602.8
387.709	598.4
388.112	595
388.515	605.8
388.918	604.6
389.322	616
389.725	607.2
390.129	630.6
390.532	613.6
390.936	602.2
391.339	603
391.743	621.2
392.125	606.4
392.529	615
392.933	619
393.337	612
393.74	608.6
394.144	605.4
394.548	601.8
394.953	605.2
395.357	608.8
395.761	602.4
396.144	609
396.548	607.6
396.952	606.8
397.357	619.2
397.761	607
398.166	600
398.57	605
398.975	597
399.379	610.6
399.763	650
400.168	610.6
400.572	614.8
400.977	613
401.382	630
401.787	615.4
402.192	630.2
402.597	620
403.002	600.2
403.386	612.4
403.791	627.8
404.197	606.2
404.602	606
405.007	607.2
405.413	602.2
405.818	615.8
406.224	601
406.608	609
407.014	602.4
407.42	619.4
407.825	602.2
408.231	612.4
408.637	600.4
409.043	625
409.449	602.6
409.834	598
410.24	614.2
410.646	615.6
411.052	618
411.458	607.4
411.865	614.2
412.271	620.4
412.677	605.6
413.062	616
413.469	594.4
413.875	627.8
414.282	624.2
414.689	617.8
415.095	606
415.502	601
415.888	605.4
416.294	595.2
416.701	643.6
417.108	607.4
417.515	617.2
417.923	608.4
418.33	631.4
418.715	628
419.123	607
419.53	610.4
419.937	618.6
420.345	625.4
420.752	598.2
421.16	632.2
421.546	615.8
421.953	621.8
422.361	618.6
422.769	613.6
423.177	607.4
423.585	633.6
423.992	624.2
424.379	627
424.787	628
425.195	632.6
425.603	614.4
426.011	625
426.419	623.4
426.806	618
427.214	610.2
427.623	624.4
428.031	627.6
428.44	611.8
428.848	630
429.235	625.6
429.644	617
430.053	615
430.461	626.2
430.87	643
431.279	625.2
431.666	610.2
432.075	610.2
432.484	611.6
432.893	610.8
433.302	629.8
433.711	654.2
434.099	619.4
434.508	607.8
434.918	600.4
435.327	627
435.737	621.2
436.125	614.8
436.534	618.8
436.944	629
437.353	625.4
437.763	641.8
438.173	624.2
438.561	642.4
438.971	615.8
439.381	638.8
439.791	644.6
440.201	626.8
440.589	649
440.999	657.2
441.409	663
441.819	648.4
442.23	665.2
442.619	664.8
443.029	667
443.439	674.2
443.85	684.6
444.26	693.8
444.649	682.6
445.06	679.8
445.471	674.8
445.881	689.8
446.292	697.4
446.682	704.2
447.092	677.8
447.503	746.4
447.914	701.8
448.325	692.4
448.715	703
449.126	693.6
449.537	696.6
449.948	706.2
450.338	713.2
450.75	710.4
451.161	717.4
451.572	715.6
451.984	710.6
452.374	698.6
452.786	721.6
453.197	716
453.609	718.8
453.999	712.2
454.411	698.8
454.823	727
455.235	727.2
455.647	720.4
456.037	723.4
456.449	705
456.862	717.2
457.274	728
457.665	724
458.077	732.8
458.489	748.8
458.902	730.8
459.293	730.4
459.705	740
460.118	726.8
460.53	735.8
460.921	734
461.334	735.2
461.747	729.4
462.16	755.8
462.551	751.2
462.964	749
463.377	722.8
463.79	740.6
464.182	751.4
464.595	732.2
465.008	748.8
465.421	751.6
465.813	753.2
466.226	760.2
466.64	739
467.053	794.8
467.445	765.6
467.859	762.2
468.272	754.6
468.686	767.4
469.078	752.2
469.492	752.8
469.906	755.8
470.298	764.8
470.712	753.8
471.126	802.6
471.54	749.2
471.933	758.4
472.347	758.6
472.761	755.4
473.175	748
473.568	758.2
473.982	747.6
474.397	754
474.79	753.8
475.204	767.2
475.619	763.4
476.033	760.2
476.426	761.2
476.841	754.2
477.256	783.4
477.649	747.2
478.064	745.8
478.479	766.4
478.872	757.2
479.287	737.6
479.702	745
480.118	751.2
480.511	760
480.927	754.2
481.342	751.4
481.736	759
482.151	749.2
482.566	771.8
482.96	756.2
483.376	762.4
483.792	750.4
484.186	762.6
484.602	740.4
485.017	752.2
485.412	744.8
485.827	756.8
486.243	746.2
486.638	772.8
487.054	751.8
487.47	763.6
487.865	747.8
488.281	744.8
488.697	735.8
489.092	740.8
489.508	744.8
489.925	759.4
490.32	733.4
490.736	750.6
491.153	742
491.548	745.2
491.964	757.6
492.381	716
492.776	735.6
493.193	738
493.61	738.2
494.006	735.8
494.422	736.2
494.84	725.6
495.235	740
495.652	730.6
496.069	734
496.465	726.4
496.883	730.8
497.3	747.2
497.696	717.4
498.113	733.4
498.509	716.6
498.927	721.4
499.344	714.8
499.741	718.4
500.158	722.8
500.576	730.2
500.973	731.6
501.39	707.2
501.787	719.8
502.205	716.4
502.623	712.4
503.02	699.6
503.438	702.4
503.856	713.8
504.253	704.2
504.671	716.4
505.068	700
505.486	711
505.905	722.4
506.302	709.2
506.72	712.2
507.118	691.2
507.536	702.8
507.955	702.4
508.352	704
508.771	709
509.169	704
509.587	689.4
510.006	700.2
510.404	686.4
510.823	688
511.221	701
511.64	690
512.038	707.6
512.457	694.4
512.877	697.6
513.275	690.2
513.694	678.4
514.092	691.6
514.512	701.2
514.91	701.6
515.33	698
515.749	693.6
516.148	698.6
516.568	689.8
516.966	683.4
517.386	681.8
517.785	675.4
518.205	679.2
518.603	678
519.024	676.4
519.444	687.6
519.843	692.4
520.263	693.6
520.662	684.4
521.082	672.8
521.481	678
521.902	679.8
522.301	674.6
522.722	678.2
523.121	668.6
523.542	674.8
523.963	676
524.362	669.4
524.783	673.4
525.183	668.8
525.604	666.8
526.003	667
526.425	668
526.824	682.2
527.246	675.8
527.646	686
528.067	659.4
528.467	657.4
528.888	667.6
529.289	655.2
529.71	663.2
530.11	659.4
530.532	670.8
530.932	650.8
531.354	646
531.755	695.8
532.176	662.6
532.577	653.2
532.999	650.4
533.4	644.8
533.822	660.4
534.223	651.4
534.645	647.2
535.046	643.8
535.468	658.6
535.869	664.8
536.292	650.6
536.693	675.2
537.115	656.6
537.516	640.6
537.939	647.8
538.34	667.8
538.742	657.8
539.165	648.6
539.566	647.6
539.989	648
540.391	646.2
540.814	652
541.216	644.8
541.639	651.6
542.041	660.2
542.464	634
542.866	639
543.268	638.2
543.691	651.4
544.093	644.8
544.517	664
544.919	635.4
545.343	656.4
545.745	632.8
546.147	637.2
546.571	637.4
546.974	629.4
547.398	639
547.8	650.8
548.224	633.6
548.627	631.2
549.03	646.2
549.454	630
549.857	623.2
550.281	634
550.684	628.2
551.087	637.2
551.512	635.8
551.915	632
552.34	640.8
552.743	632
553.146	630
553.571	632.6
553.975	645.8
554.399	619
554.803	680.4
555.207	633.6
555.632	623.4
556.036	640.8
556.461	625
556.865	631.6
557.268	618.8
557.694	623.2
558.098	630.6
558.502	633.4
558.927	622.6
559.332	620.6
559.736	626.8
560.162	633.4
560.566	627.2
560.992	634.4
561.396	625.2
561.801	621
562.227	624.8
562.631	614.8
563.036	624.2
563.462	639
563.867	634
564.272	619.4
564.698	629.8
565.103	619.2
565.508	645
565.935	625.2
566.34	623.6
566.745	630.2
567.172	619.4
567.577	642
567.982	629.2
568.409	631.8
568.815	615
569.22	622
569.626	621.6
570.053	613.2
570.459	625.8
570.865	631
571.292	627.6
571.698	621.4
572.104	604.6
572.531	610.6
572.937	627.4
573.343	619.4
573.75	612.4
574.177	618.4
574.583	624.8
574.99	613.6
575.396	627.2
575.824	606.2
576.231	617.2
576.637	610.2
577.065	638.4
577.472	608.2
577.879	612.8
578.286	634.4
578.714	609.4
579.121	615.6
579.528	620.4
579.935	617
580.364	610.4
580.771	600.6
581.178	606
581.585	622
582.014	617.6
582.421	601
582.829	610.6
583.236	615.6
583.644	613.8
584.073	609.2
584.481	602.6
584.889	607.6
585.296	626.6
585.726	606.8
586.134	596.6
586.542	608.6
586.95	623.6
587.358	602
587.787	609.6
588.196	608
588.604	615.6
589.012	617.8
589.421	602.6
589.851	597.4
590.259	607.8
590.668	595.6
591.076	636.4
591.485	596
591.894	604.2
592.324	615.8
592.733	615
593.142	590.8
593.551	606.2
593.96	635.6
594.369	598.6
594.8	600
595.209	611.2
595.618	588.2
596.028	594.4
596.437	594.2
596.847	605.4
597.256	606.6
597.687	607
598.097	604.8
598.507	589.8
598.917	598.2
599.327	606.4
599.736	601.4
600.146	610.8
600.556	595.6
600.988	616.4
601.398	598.4
601.808	608.6
602.219	597.8
602.629	605.8
603.039	607
603.45	625.8
603.86	604
604.271	615.8
604.703	594.2
605.114	606
605.525	604.6
605.935	600.6
606.346	625.6
606.757	612
607.168	600
607.579	597.6
607.99	604.6
608.402	601.6
608.813	607.2
609.224	598.6
609.636	590.4
610.047	601
610.48	601.2
610.892	606.4
611.303	615.6
611.715	596.2
612.127	596.2
612.539	594.6
612.95	604
613.362	595.8
613.774	588.4
614.186	589.2
614.599	595.4
615.011	604.6
615.423	599.8
615.835	600.6
616.248	588.2
616.66	615.2
617.073	596.6
617.485	595.2
617.898	607.6
618.311	603.8
618.723	592.2
619.136	624
619.549	615.6
619.962	627
620.375	589.8
620.788	602
621.201	592.6
621.614	614
622.028	591
622.441	600.2
622.854	608
623.268	591.6
623.681	600
624.095	604.2
624.509	605
624.922	612
625.336	589
625.728	595.4
626.142	605.4
626.556	616.8
626.97	603.4
627.384	595.6
627.799	594
628.213	606.2
628.627	599.2
629.041	589.6
629.456	592
629.87	596.8
630.285	603.6
630.699	597.4
631.093	591.6
631.507	597.2
631.922	596.6
632.337	602.6
632.752	590
633.167	593.6
633.582	588.8
633.997	591.8
634.412	583.2
634.806	592.8
635.221	582.6
635.637	597.2
636.052	579
636.468	596.6
636.883	611
637.299	590.8
637.715	576.6
638.109	592
638.525	584.4
638.941	605.6
639.357	598.6
639.773	608.6
640.189	593.2
640.584	595.4
641	597.6
641.416	583.4
641.832	583.6
642.249	578
642.665	588.4
643.06	601.8
643.477	600.2
643.894	579.2
644.31	592
644.727	593
645.123	586.2
645.54	584.8
645.957	593.4
646.374	597.8
646.77	589.4
647.187	629
647.604	586.2
648.021	572.8
648.439	594
648.835	590
649.252	600.4
649.67	587.4
650.088	591
650.484	595.2
650.902	603.6
651.32	597.6
651.738	591.6
652.134	588.4
652.552	604.6
652.971	605
653.389	598.4
653.786	607.4
654.204	613.8
654.622	589.2
655.019	594.6
655.438	600.4
655.857	598.4
656.275	594
656.673	585
657.091	600.8
657.51	588.8
657.908	603.4
658.327	609.8
658.746	581.2
659.144	590.2
659.563	607.8
659.982	598
660.38	586.8
660.8	594
661.219	592.4
661.617	597
662.037	594.6
662.457	610.2
662.855	577.8
663.275	620.2
663.695	595.6
664.094	586.8
664.514	595.2
664.934	583.4
665.333	602.8
665.753	603.6
666.152	576.4
666.572	589.8
666.993	601.4
667.392	583.4
667.812	591
668.212	581.8
668.632	605.2
669.053	591
669.453	593.8
669.874	598.8
670.273	587
670.694	577.4
671.116	600
671.515	609.2
671.937	595.6
672.337	585.8
672.758	589.2
673.158	591.2
673.58	582.6
673.98	595.8
674.402	606.6
674.824	592.6
675.224	584
675.646	586.4
676.047	588.8
676.469	586.2
676.869	594
677.292	596.4
677.693	579.8
678.115	587.2
678.516	602
678.939	594
679.34	590
679.762	599
680.164	598.4
680.586	580.4
680.988	594.4
681.411	617
681.812	594.8
682.236	585.4
682.637	584.2
683.061	576.8
683.462	592.2
683.864	587.4
684.288	591.4
684.69	577.8
685.114	596.4
685.516	607.2
685.94	585
686.342	592.8
686.766	582.4
687.168	586.6
687.571	607.2
687.995	583.2
688.398	576.4
688.822	587.6
689.225	611
689.628	597.4
690.052	590.8
690.456	596.8
690.88	589.2
691.284	578.6
691.687	597.4
692.112	584.6
692.515	581.8
692.919	587.6
693.344	590.8
693.747	579.2
694.173	576.4
694.577	597.6
694.98	591
695.406	585.8
695.81	590.4
696.214	597.4
696.64	594
697.044	590.4
697.448	598
697.874	586
698.279	582.4
698.684	577.8
699.11	576
699.514	586
699.919	582.2
700.324	571.6
700.75	590.8
701.156	587.8
701.561	595
701.987	597.2
702.393	592.6
702.798	591.4
703.203	593.6
703.63	583.4
704.036	585
704.442	594.4
704.847	581.8
705.274	582.8
705.68	591.2
706.086	589.6
706.492	576.6
706.92	590.6
707.326	593.2
707.732	578
708.139	569.8
708.545	583.2
708.973	578.4
709.38	598
709.786	573.4
710.193	602
710.6	588.6
711.028	584.2
711.435	580.6
711.842	586.2
712.249	585.6
712.656	584.4
713.064	598
713.492	575.4
713.9	584.6
714.307	593.4
714.715	590.2
715.123	587.8
715.53	586.2
715.938	601.6
716.367	587
716.775	590.6
717.184	582.8
717.592	587.6
718	598.6
718.408	621.6
718.816	634.4
719.225	591.6
719.633	585.4
720.042	585.4
720.472	588.4
720.881	607.8
721.29	595
721.699	585.2
722.108	589.4
722.517	590.2
722.926	582
723.335	592.2
723.744	588
724.154	585.6
724.563	591.2
724.973	584.2
725.382	582.6
725.792	578.6
726.202	575.4
726.612	599.2
727.022	580.4
727.432	584.4
779.813	578
780.223	618.4
780.634	582.4
781.044	582.2
781.454	576.6
781.865	591
782.276	573
782.686	589.6
783.097	580
783.508	585.8
783.919	580.2
784.33	597.4
784.741	601.4
785.152	578.6
785.563	576.8
785.974	578.2
786.386	599.8
786.776	582.4
787.188	579.8
787.599	567
788.011	589.6
788.423	576.8
788.835	582.2
789.247	573.2
789.659	576.2
790.071	581.2
790.483	626.2
790.874	579.8
791.286	593
791.699	579.6
792.111	575
792.524	584
792.937	577.6
793.349	575.4
793.741	575.8
794.154	578.4
794.567	600.6
794.98	574.6
795.393	567.6
795.785	608.6
796.198	580.4
796.612	588
797.026	585
797.439	569
797.831	587.6
798.245	577.6
798.659	585
799.073	577
799.487	584.6
799.88	589.4
800.294	582.6
800.708	590.6
801.123	583.8
801.516	603.4
801.93	580.4
802.345	568.4
802.76	590.4
803.153	602.2
803.568	592.4
803.983	597.6
804.377	595.2
804.792	568.6
805.207	574.2
805.601	594
806.016	622.8
806.432	582
806.826	615.2
807.242	605.2
807.658	584.8
808.052	578.4
808.468	579.8
808.884	568
809.279	581.6
809.695	595
810.111	602.2
810.506	594.4
810.922	603.4
811.339	585.8
811.734	593.4
812.151	580.8
812.546	585.6
812.963	578.8
813.38	588.8
813.776	585.8
814.193	600.2
814.589	577
815.006	577.6
815.402	575.6
815.82	580.4
816.237	587.8
816.633	585.6
817.051	577.6
817.448	584.4
817.866	571.4
818.262	609.8
818.68	582.4
819.077	586.2
819.495	585.4
819.892	620
820.311	575
820.708	586.8
821.127	586.2
821.524	595.2
821.943	582.4
822.34	604
822.759	597
823.157	594.6
823.576	601.6
823.974	590.4
824.393	607.2
824.791	583.6
825.189	581
825.609	577
826.007	582.4
826.427	580.6
826.826	587.6
827.246	586.8
827.644	577.2
828.043	597
828.463	581
828.862	599.6
829.261	588.4
829.682	573.2
830.081	582.6
830.502	579.6
830.901	584.2
831.301	597
831.722	578.8
832.121	578.4
832.521	578.6
832.943	581
833.342	572
833.742	574
834.164	580.6
834.564	568
834.965	580
835.386	582.8
835.787	581
836.188	584.8
836.588	585.4
837.01	579.8
837.411	572.2
837.812	586.8
838.213	592.4
838.636	579.2
839.037	661.4
839.438	588.2
839.84	584.6
840.263	584.2
840.664	590.6
841.066	580.2
841.468	584.8
841.891	582.2
842.293	586
842.695	587.8
843.098	593.8
843.5	580.4
843.902	592
844.326	587.6
844.729	585
845.131	594
845.534	584.8
845.937	591
846.34	600.4
846.764	572.4
847.167	587.4
847.571	569.8
847.974	578.2
848.377	583.6
848.781	623.4
849.184	594.4
849.588	575.6
849.992	579.2
850.396	573.4
850.821	595.4
851.225	596.6
851.63	578.4
852.034	594.2
852.438	588
852.843	655
853.247	582.2
853.652	575.4
854.057	597.6
854.462	580.8
854.867	583.8
855.272	612.2
855.677	585.4
856.082	580
856.487	585
856.893	591.2
857.298	579.4
857.704	575.6
858.11	580
858.516	593.4
858.922	584.6
859.328	590
859.734	586.8
860.14	589.8
860.525	579.6
860.931	577
861.338	582.4
861.745	589
862.151	588.2
862.558	587.2
862.965	579.2
863.372	579.4
863.779	568.6
864.186	602.4
864.572	583.6
864.98	594.6
865.387	623
865.795	574.2
866.203	589.4
866.61	577.6
867.018	587.8
867.405	588.4
867.813	581.4
868.221	582
868.63	578
869.038	581.2
869.425	620.8
869.834	587.4
870.243	576
870.652	565.4
871.039	581.6
871.448	571.6
871.857	581.4
872.266	580
872.654	579.6
873.064	578.4
873.473	583.8
873.883	564.4
874.271	570.2
874.681	592.8
875.091	568
875.48	588.6
875.89	604.6
876.3	579.2
876.689	568.4
877.1	580.2
877.51	581.4
877.9	601.2
878.31	578.2
878.721	613
879.111	587.6
879.522	586.4
879.933	572.8
880.323	572.6
880.734	573.6
881.125	578.2
881.536	576.2
881.948	582.2
882.338	589.2
882.75	583.8
883.141	581.6
883.553	583.4
883.944	606.6
884.356	592.8
884.769	577.6
885.16	581
885.573	586
885.964	565.6
886.377	572.8
886.768	571.2
887.181	572.6
887.573	574.4
887.987	583.4
888.378	593.8
888.792	588.6
889.184	625.8
889.598	575.6
889.99	581.4
890.383	574.6
890.797	572.6
891.19	591.4
891.604	578.4
891.997	578.8
892.411	570.8
892.805	571.4
893.198	572.8
893.613	563
894.006	584
894.421	572
894.815	572.2
895.209	575.2
895.624	622
896.018	596
896.412	566.4
896.828	582.4
897.222	585.2
897.617	582
898.033	599
898.427	580
898.822	576.2
899.239	568.2
899.634	578
900.029	599.4
900.424	577
900.841	574.8
901.236	586.6
901.632	582
902.027	639.2
902.445	588.4
902.841	577.2
903.237	576.8
903.633	591.2
904.05	589.6
904.447	583.2
904.843	584.8
905.24	581.6
905.636	560.6
906.033	583.2
906.451	584.6
906.848	571.6
907.246	578.6
907.643	581.8
908.04	582
908.438	602
908.835	582.4
909.254	578
909.652	587.2
910.05	576.6
910.448	576.8
910.846	585
911.244	574
911.643	586.2
912.041	583.6
912.44	592.2
912.839	569
913.237	575.4
913.636	572
914.035	594.4
914.434	576.6
914.834	591
915.233	589.4
915.633	571.6
916.032	578
916.432	575
916.832	596.8
917.232	584
917.632	567.6
918.032	585.8
918.432	578
918.833	576.6
919.233	583.6
919.634	571.2
920.035	582.6
920.436	581.2
920.837	588.6
921.238	581.6
921.639	590.4
922.019	583.4
922.42	584
922.822	585
923.224	582.4
923.625	579.6
924.027	584.6
924.429	595.4
924.81	587.2
925.212	584
925.615	581.4
926.017	582.4
926.42	592
926.801	588.6
927.204	584
927.607	588.2
928.01	590
928.413	578
928.795	565.8
929.199	575.6
929.602	581
930.006	567
930.388	572.8
930.792	575.2
931.196	573.2
931.579	617.2
931.983	581.2
932.388	620.2
932.771	570.4
933.176	578.6
933.58	579
933.964	588.8
934.369	570.2
934.774	585.2
935.158	580.8
935.563	577.4
935.947	576.6
936.353	582
936.759	581.8
937.143	579.6
937.549	579.6
937.934	587.6
938.34	597.4
938.746	571
939.131	573.4
939.538	571.8
939.923	589.8
940.33	573.8
940.716	594.2
941.123	582.2
941.508	584.4
941.916	603.6
942.302	580.8
942.709	568.4
943.096	570.2
943.503	577.6
943.89	571.6
944.298	573.2
944.685	605.6
945.072	583.8
945.48	595
945.867	566.4
946.276	586
946.663	606.4
947.051	602
947.46	577.4
947.848	581
948.257	582.2
948.645	574.4
949.033	568.8
949.443	570.4
949.831	618.4
950.22	574.2
950.63	584.4
951.018	608
951.407	580.2
951.796	571.8
952.207	579.4
952.596	583.2
952.985	564.6
953.375	626
953.786	575.4
954.176	566.6
954.566	590.6
954.956	574.6
955.367	579.6
955.758	603
956.148	574
956.539	582.6
956.929	567.8
957.341	571.6
957.732	579.6
958.123	589
958.515	575.4
958.906	588.4
959.297	580.2
959.689	574.4
960.102	585.4
960.494	584.2
960.886	572.8
961.278	580.8
961.67	599.8
962.062	617.4
962.455	570
962.847	569.8
963.24	568.4
963.633	570.6
964.026	563.2
964.419	577.4
964.812	579.6
965.206	573.8
965.599	574.4
965.993	575
966.386	571.8
966.78	584.8
967.174	582.6
967.569	572.2
967.963	572
968.357	570
968.752	576.6
969.146	571.6
969.541	572.6
969.936	572
970.331	583.4
970.705	576.2
971.1	580.8
971.496	579.2
971.892	576
972.287	583.6
972.683	569.2
973.079	568.6
973.454	586
973.85	579.6
974.247	592.8
974.643	600.4
975.04	583.8
975.415	573.2
975.812	568.6
976.209	587.4
976.607	571.2
976.982	584.4
977.38	588.8
977.778	572.6
978.175	577.4
978.552	561.6
978.95	581.4
979.348	579.4
979.725	620
980.123	567.6
980.522	569.4
980.899	567.8
981.298	572.4
981.697	576.4
982.075	569.8
982.474	563.2
982.852	579.4
983.251	580.6
983.651	567
984.029	573.8
984.429	583.6
984.808	565.6
985.208	573.6
985.609	570.6
985.987	563
986.388	574.2
986.768	572.8
987.168	573.6
987.548	583.2
987.949	582.6
988.329	577.6
988.731	556.4
989.111	577
989.491	568
989.893	579
990.273	577
990.676	566
991.057	570
991.459	580.6
991.84	580.6
992.221	570
992.624	596.8
993.006	577.4
993.388	579.2
993.791	582.6
994.173	577.4
994.576	620.8
994.959	558.6
995.341	572.2
995.724	580.2
996.128	577.8
996.511	575.8
996.894	574
997.298	574.4
997.681	579.6
998.065	582.4
998.448	566
998.854	589.8
999.237	572.6
999.621	584.6
1000.01	594.6
1000.39	582.6
1000.8	571
1001.18	578.4
1001.56	578.2
1001.95	586.4
1002.33	583.8
1002.72	574
1003.13	575.2
1003.51	579.8
1003.9	573.4
1004.28	583.4
1004.67	576
1005.06	572.4
1005.44	604
1005.83	564.6
1006.21	579.6
1006.6	575.4
1006.99	588.8
1007.37	586.4
1007.76	574.8
1060.12	569.4
1060.51	576.4
1060.89	589.6
1061.28	585.8
1061.67	587.8
1062.06	583.6
1062.45	583
1062.83	578
1063.22	589.6
1063.61	613.8
1064	584.6
1064.39	580.2
1064.78	575.8
1065.14	589.6
1065.53	581.2
1065.92	577.6
1066.31	567.6
1066.7	576.8
1067.09	590.4
1067.46	591.8
1067.85	570.6
1068.24	578.2
1068.63	580.6
1069.02	560.2
1069.39	576.6
1069.78	569
1070.17	570.4
1070.57	566.8
1070.93	577.4
1071.33	571.2
1071.72	577.6
1072.11	565.2
1072.48	573.6
1072.87	582.4
1073.26	574
1073.64	572.6
1074.03	570.8
1074.4	565.4
1074.79	568.2
1075.19	582.8
1075.56	580.4
1075.95	579.6
1076.34	581.8
1076.72	565.4
1077.11	583
1077.48	590.6
1077.88	584.2
1078.25	576.8
1078.64	576.2
1079.02	580.2
1079.41	582.6
1079.78	573.8
1080.18	578
1080.55	640.2
1080.95	563.8
1081.32	572.4
1081.72	583.2
1082.09	578.6
1082.49	556
1082.86	570.6
1083.24	559.4
1083.63	561.4
1084.01	570.2
1084.38	572
1084.78	575.6
1085.16	581.4
1085.55	586
1085.93	596.2
1086.31	569.4
1086.7	608.6
1087.08	573.2
1087.46	566
1087.83	569.4
1088.23	575.8
1088.61	576.8
1088.99	579
1089.36	568.8
1089.76	574.6
1090.14	565.6
1090.52	564.2
1090.9	574.8
1091.27	590.2
1091.67	600.6
1092.05	576
1092.43	570.6
1092.81	582.4
1093.19	579
1093.57	574.6
1093.95	577.2
1094.35	586.2
1094.73	581.8
1095.11	565.8
1095.49	565.6
1095.87	573.8
1096.25	585.4
1096.63	586.4
1097.01	570.6
1097.39	579.6
1097.77	573.6
1098.15	579.8
1098.53	570.8
1098.91	574
1099.29	575.4
1099.68	595.2
1100.06	583.8
1100.44	574.8
1100.82	575.8
1101.18	582.2
1101.56	576.2
1101.95	566.6
1102.33	575.8
1102.71	579.8
1103.1	575.2
1103.48	569.2
1103.86	559
1104.22	577.6
1104.61	572.6
1104.99	572.6
1105.38	564
1105.76	567.4
1106.12	575.2
1106.51	606.4
1106.89	575.2
1107.26	574.8
1107.64	582
1108.03	565.2
1108.41	582.2
1108.78	582
1109.16	570.8
1109.55	577.2
1109.91	562.2
1110.3	553.8
1110.69	582
1111.05	571
1111.44	584.6
1111.8	570.6
1112.19	575
1112.58	576.2
1112.94	568.4
1113.33	566.8
1113.7	564.6
1114.09	571.2
1114.45	558.2
1114.84	567.2
1115.21	577.4
1115.6	574.6
1115.96	579.4
1116.35	581.8
1116.72	572
1117.11	582
1117.48	576.4
1117.85	575.6
1118.24	593
1118.6	573.6
1118.99	562
1119.36	580
1119.73	579.6
1120.12	568.2
1120.49	561.6
1120.86	571
1121.25	572.6
1121.62	567.8
1121.99	566.4
1122.38	580.4
1122.76	574.4
1123.13	564
1123.5	582.4
1123.89	583.4
1124.26	556.4
1124.63	577.4
1125	566.2
1125.4	567.4
1125.77	563.4
1126.14	565.2
1126.51	569.2
1126.88	575.4
1127.26	562.6
1127.63	552
1128.02	567.4
1128.4	559.4
1128.77	573.2
1129.14	569.8
1129.52	572.8
1129.89	573.2
1130.26	570
1130.64	567.4
1131.01	572.8
