#lambda/nm	C1
208.295	507.6
208.67	469.4
209.045	428.2
209.419	426.8
209.794	615.4
210.169	595.4
210.544	722
210.919	620.2
211.295	600.6
211.67	619.2
212.045	602.6
212.421	613
212.796	647
213.172	607.4
213.547	622.2
213.923	615.2
214.299	626.6
214.675	621.4
215.051	625
215.427	627.2
215.803	641
216.179	620
216.555	613.8
216.932	623
217.308	624.4
217.684	616
218.061	622.6
218.438	623.6
218.814	613
219.191	622.4
219.568	606
219.945	617.6
220.322	628.8
220.699	619.8
221.076	623.2
221.453	622.4
221.83	610.8
222.208	613.4
222.585	612.2
222.962	623.8
223.34	618
223.717	618.8
224.095	615.4
224.473	620.6
224.851	610.8
225.229	604.6
225.607	635
225.985	612.4
226.363	624
226.741	626.4
227.119	618
227.497	628.8
227.876	608.2
228.254	631.4
228.633	631.4
229.011	620.4
229.39	614.4
229.769	620
230.148	626
230.527	641.8
230.905	617.6
231.284	621.8
231.664	613.8
232.043	627.4
232.422	629.6
232.801	612.4
233.181	622
233.56	615.4
233.94	611.6
234.319	604
234.699	628.6
235.079	648.8
235.458	650.4
235.838	626.8
236.218	611.6
236.598	616
236.978	611.6
237.358	612.4
237.738	613.8
238.119	626.2
238.499	608.4
238.88	619.8
239.26	632.4
239.641	607
240.021	608.4
240.402	613
240.783	607.2
241.163	615.8
241.544	620
241.925	614
242.306	631.8
242.687	624.8
243.069	615.8
243.45	625.6
243.831	614.6
244.212	620.6
244.594	648.4
244.975	617.6
245.357	616.6
245.739	611.2
246.12	616.2
246.502	627.8
246.884	620.4
247.266	616
247.648	619
248.03	641.4
248.412	614.8
248.794	618.4
249.176	610.2
249.559	627.2
249.941	607.2
250.323	608.8
250.706	617
251.089	611.4
251.471	624.2
251.854	617.8
252.237	617
252.62	623.8
253.002	615.6
253.385	616.8
253.769	633.2
254.152	615.8
254.535	628.8
254.918	612.6
255.301	617.2
255.685	619.2
256.068	603.6
256.452	640.2
256.835	630.6
257.219	622.4
257.603	628.8
257.986	607.8
258.37	617.8
258.754	606.8
259.138	624.6
259.522	624
259.906	609.2
260.29	622
260.675	606
261.059	624.6
261.443	604.8
261.828	624.8
262.212	617.2
262.597	603.6
262.981	612.6
263.366	628.4
263.751	616
264.136	608.6
264.521	618.8
264.906	602.8
265.291	624
265.676	603.4
266.061	612.4
266.446	627
266.831	610.6
267.217	628
267.602	618.4
267.987	613.6
268.373	605
268.759	623.6
269.144	621
269.53	609.4
269.916	615.8
270.302	598.8
270.688	620.8
271.074	623
271.46	626
271.846	657.2
272.232	618
272.618	609.6
273.004	612.6
273.391	626.6
273.777	627.4
274.164	610.8
274.55	636.2
274.937	624.4
275.324	621.6
275.71	624.4
276.097	632
276.484	617.4
276.871	626
277.258	628
277.645	608
278.032	614.4
278.419	613.6
278.807	610.4
279.194	610.4
279.581	613.2
279.969	617.2
280.356	629.4
280.744	618.4
281.131	647.2
281.519	626.4
281.907	607
282.295	615.6
282.682	628.6
283.07	622.8
283.458	624.2
283.846	629.8
284.235	631.8
284.623	624.6
285.011	607.8
285.399	623.4
285.788	617.6
286.176	609.8
286.565	626.6
286.953	611.8
287.342	615
287.731	599.8
288.119	606.4
288.508	610.6
288.897	612.8
289.286	595.8
289.675	614.8
290.064	627.8
290.453	614.6
290.821	616
291.21	627.6
291.599	611.2
291.989	619
292.378	627
292.768	635
293.157	621
293.547	629.2
293.936	619.2
294.326	608.8
294.716	618
295.106	621.8
295.496	620.8
295.886	624.6
296.276	615
296.666	615.4
297.056	609.2
297.446	605.4
297.836	636.8
298.227	616.8
298.617	619.8
299.008	634.6
299.398	616.6
299.789	610
300.179	621.8
300.57	631.4
300.961	614.2
301.352	616.8
301.742	615.2
302.133	615.6
302.524	613
302.915	612
303.307	610.8
303.698	635.2
304.089	626.2
304.48	618
304.872	619
305.263	622.8
305.655	612.6
306.046	631.6
306.438	627.8
306.829	607.8
307.221	627.6
307.613	621.2
308.005	619.2
308.397	636.2
308.789	639
309.181	640.6
309.573	635
309.965	631.2
310.357	614.4
310.749	636.4
311.142	607.6
311.534	616.2
311.926	622
312.319	621.4
312.711	618
313.104	632.6
313.497	618
313.889	649
314.282	638.6
314.675	648.4
315.068	622.4
315.461	625.2
315.854	651.2
316.247	616.2
316.64	614.2
317.033	610.6
317.405	622.4
317.798	614.8
318.192	625.6
318.585	611.2
318.979	625.2
319.372	615.6
319.766	618.4
320.16	624.4
320.553	630.8
320.947	638
321.341	616.2
321.735	617.2
322.129	597.6
322.523	643.6
322.917	610
323.311	620
323.705	625.6
324.099	621.6
324.494	629.6
324.888	629
325.282	609
325.677	632.2
326.071	626
326.466	627
326.861	625.6
327.255	627.8
327.65	629.6
328.045	633.4
328.44	617.2
328.835	627.6
329.23	606.8
329.625	642
330.02	609.4
330.415	645.4
330.81	617.8
331.206	619.8
331.601	609.6
331.996	633.6
332.37	636
332.766	610.6
333.161	635.6
333.557	614.4
333.953	621
334.348	1048.6
334.744	621.6
335.14	611.4
335.536	618.6
335.932	634.2
336.328	627.2
336.724	618
337.12	616
337.516	627.6
337.913	617.2
338.309	637.8
338.705	621.6
339.102	624.8
339.498	614.8
339.895	631.2
340.291	618
340.688	623.4
341.085	613.6
341.481	618
341.878	618.2
342.275	631.8
342.672	614.4
343.069	605.2
343.466	599.2
343.842	629.2
344.239	608.8
344.636	613.4
345.033	601.6
345.431	609.6
345.828	615.8
346.225	615.4
346.623	647
347.02	614.8
347.418	624.2
347.816	634.2
348.213	606.6
348.611	620.8
349.009	609.6
349.407	632.6
349.805	614.4
350.203	609.4
350.601	628
350.999	610.4
351.397	676.2
351.795	618.6
352.193	620.6
352.57	622.2
352.969	627.8
353.367	610.2
353.766	610.4
354.164	612.8
354.563	636
354.961	625.4
355.36	613.8
355.759	615.8
356.158	608
356.557	610.6
356.956	601.8
357.355	612.4
357.754	609.2
358.153	616.6
358.552	635
358.951	607.6
359.35	622.8
359.75	611
360.149	602.2
360.527	606.8
360.926	605.4
361.326	614.6
361.726	603
362.125	604.8
362.525	621.4
362.925	606.4
363.325	607.4
363.724	615
364.124	600.6
364.524	587.8
364.924	604
365.324	622.2
365.725	586.2
366.125	613.2
366.525	609.4
366.904	611.6
367.304	592
367.705	629.8
368.105	618.2
368.506	605.2
368.906	605.4
369.307	615.2
369.708	619.6
370.108	600.6
370.509	612.4
370.91	603.2
371.311	619
371.712	609
372.113	605.6
372.514	600.6
372.894	610
373.295	600.2
373.696	617.6
374.097	628
374.499	649
374.9	611.8
375.301	598.4
375.703	603.8
376.105	603.6
376.506	618.6
376.908	620.8
377.309	615.4
377.711	612.4
378.113	614
378.493	609.8
378.895	602
379.297	613.2
379.699	601.2
380.102	617.4
380.504	620.6
380.906	603.4
381.308	623.6
381.71	612.6
382.113	620.2
382.515	602.2
382.918	613.6
383.299	610.2
383.701	610.6
384.104	606.6
384.507	591.8
384.909	616.8
385.312	598.2
385.715	591.8
386.118	609.2
386.521	589.8
386.924	617.2
387.327	605
387.709	597.4
388.112	594.2
388.515	610.4
388.918	609.4
389.322	614
389.725	608.2
390.129	636.8
390.532	613.4
390.936	611
391.339	602.8
391.743	613
392.125	603.8
392.529	619
392.933	627
393.337	611.8
393.74	602
394.144	602.2
394.548	605.6
394.953	606.6
395.357	611.6
395.761	605.2
396.144	607.8
396.548	610.8
396.952	603.4
397.357	615.8
397.761	606.6
398.166	605
398.57	605.6
398.975	596.6
399.379	617
399.763	644.4
400.168	615
400.572	604.8
400.977	612.2
401.382	629
401.787	615.4
402.192	614.6
402.597	632
403.002	597.8
403.386	610
403.791	623.4
404.197	603.2
404.602	604.4
405.007	611
405.413	601.4
405.818	611.4
406.224	604.2
406.608	606.4
407.014	607.4
407.42	624.6
407.825	603.4
408.231	618.6
408.637	618
409.043	624.8
409.449	601.4
409.834	601
410.24	616.8
410.646	624.6
411.052	612.8
411.458	608
411.865	617.2
412.271	617
412.677	617.4
413.062	615.4
413.469	601.2
413.875	636.4
414.282	628
414.689	607.2
415.095	614.8
415.502	601.8
415.888	614.4
416.294	590.4
416.701	634.6
417.108	610
417.515	621.8
417.923	609.6
418.33	629
418.715	622
419.123	615
419.53	614.2
419.937	616.4
420.345	630
420.752	607.6
421.16	627.2
421.546	613.4
421.953	612.6
422.361	603.4
422.769	606.6
423.177	610.4
423.585	639.6
423.992	634
424.379	615.8
424.787	619.8
425.195	630.6
425.603	615.4
426.011	628.6
426.419	628.6
426.806	610.6
427.214	613.2
427.623	623.6
428.031	626.4
428.44	610.4
428.848	623
429.235	634
429.644	613.4
430.053	618
430.461	627.8
430.87	641
431.279	622.6
431.666	610.8
432.075	615.4
432.484	624.2
432.893	620
433.302	638.6
433.711	664
434.099	631.6
434.508	621.8
434.918	612.6
435.327	637.4
435.737	631.4
436.125	639.4
436.534	637.6
436.944	644
437.353	646
437.763	658.8
438.173	642
438.561	663.6
438.971	644.4
439.381	659.6
439.791	668.4
440.201	642.6
440.589	672.8
440.999	693
441.409	674.4
441.819	676.4
442.23	694.4
442.619	701.4
443.029	695.8
443.439	705.6
443.85	709.8
444.26	729.4
444.649	713.8
445.06	721.2
445.471	715.8
445.881	716
446.292	745.8
446.682	752.4
447.092	713.2
447.503	784
447.914	731
448.325	731.6
448.715	753.8
449.126	735
449.537	746.8
449.948	752.8
450.338	754.4
450.75	752.8
451.161	758.8
451.572	760.2
451.984	757
452.374	746.2
452.786	760
453.197	759.4
453.609	778.8
453.999	751.8
454.411	756.2
454.823	767.4
455.235	771.8
455.647	767.4
456.037	762.6
456.449	759.8
456.862	773.8
457.274	775.4
457.665	761.2
458.077	778.6
458.489	810.6
458.902	772.6
459.293	781
459.705	780.6
460.118	778.8
460.53	780
460.921	788.8
461.334	792.8
461.747	782.6
462.16	804
462.551	799.8
462.964	788.2
463.377	777.2
463.79	778.6
464.182	801
464.595	782.6
465.008	792.4
465.421	797.8
465.813	793.8
466.226	805.2
466.64	792.4
467.053	839
467.445	818.2
467.859	827.8
468.272	804.4
468.686	820
469.078	810.4
469.492	798.4
469.906	804.6
470.298	813.2
470.712	805.8
471.126	855.4
471.54	804.4
471.933	804.6
472.347	809.6
472.761	803.4
473.175	793.4
473.568	802.4
473.982	805
474.397	814
474.79	801.4
475.204	818.6
475.619	810
476.033	805.6
476.426	812.8
476.841	799.6
477.256	822.2
477.649	809.2
478.064	802.2
478.479	804.2
478.872	797.4
479.287	785.8
479.702	793.8
480.118	802.4
480.511	798.8
480.927	804
481.342	793
481.736	800.4
482.151	787
482.566	812.2
482.96	799.4
483.376	810.8
483.792	793.4
484.186	804
484.602	799.6
485.017	797.2
485.412	796.2
485.827	805.2
486.243	798.6
486.638	816
487.054	807.2
487.47	815.6
487.865	783.8
488.281	787.2
488.697	774
489.092	789.2
489.508	791.8
489.925	795.6
490.32	779.8
490.736	800.4
491.153	787.8
491.548	783.2
491.964	790.8
492.381	768.8
492.776	779.8
493.193	774.2
493.61	791.4
494.006	776
494.422	783.6
494.84	766.2
495.235	773.4
495.652	777.2
496.069	767.4
496.465	752
496.883	763.2
497.3	789.6
497.696	756.4
498.113	769
498.509	748.4
498.927	755.4
499.344	747.8
499.741	746.6
500.158	761
500.576	766.4
500.973	760.6
501.39	746.4
501.787	740.6
502.205	750.2
502.623	745.2
503.02	739.8
503.438	735.4
503.856	750.2
504.253	744.8
504.671	740.8
505.068	738.6
505.486	741.6
505.905	756
506.302	743.6
506.72	749.4
507.118	728.2
507.536	739.2
507.955	728.4
508.352	729
508.771	736.2
509.169	732
509.587	725.8
510.006	724.6
510.404	711.4
510.823	724
511.221	723
511.64	719.2
512.038	740
512.457	718.8
512.877	724.6
513.275	710.4
513.694	715
514.092	715.4
514.512	713.6
514.91	724.8
515.33	703.2
515.749	713.6
516.148	718.2
516.568	715.6
516.966	708.4
517.386	707
517.785	701.6
518.205	701.2
518.603	700.8
519.024	698
519.444	704
519.843	704.8
520.263	708.6
520.662	708
521.082	692.8
521.481	697.2
521.902	701.6
522.301	701.6
522.722	701.8
523.121	695.4
523.542	690
523.963	693.6
524.362	689.4
524.783	691.2
525.183	682.6
525.604	698.6
526.003	673.8
526.425	685.4
526.824	692.6
527.246	695.6
527.646	693.4
528.067	680.6
528.467	682.8
528.888	683
529.289	674.2
529.71	681.2
530.11	671
530.532	662.2
530.932	672.2
531.354	663.6
531.755	706
532.176	680.6
532.577	666
532.999	665.4
533.4	668
533.822	671
534.223	677.4
534.645	669
535.046	663.8
535.468	668.2
535.869	678.4
536.292	666
536.693	695.4
537.115	668
537.516	668.8
537.939	665.2
538.34	688.8
538.742	668.6
539.165	659.6
539.566	679.2
539.989	653.4
540.391	654.4
540.814	661
541.216	666.2
541.639	652.6
542.041	670.8
542.464	655.4
542.866	646.6
543.268	644
543.691	662.4
544.093	669.2
544.517	679.2
544.919	656.2
545.343	671.4
545.745	643.4
546.147	660
546.571	649.8
546.974	648.8
547.398	652.8
547.8	665.2
548.224	646.4
548.627	650.4
549.03	649.6
549.454	639.2
549.857	638
550.281	636
550.684	636.4
551.087	654
551.512	647.4
551.915	648.8
552.34	642.6
552.743	640.6
553.146	635.4
553.571	644.8
553.975	655.2
554.399	635
554.803	677.8
555.207	630.8
555.632	632
556.036	640.6
556.461	633.2
556.865	631
557.268	629.8
557.694	634.6
558.098	648.4
558.502	633.4
558.927	621.2
559.332	639.2
559.736	642.2
560.162	634.4
560.566	621.8
560.992	635
561.396	631.4
561.801	633
562.227	624
562.631	624.6
563.036	626.6
563.462	638.8
563.867	629.4
564.272	621.4
564.698	628.8
565.103	614.4
565.508	648.2
565.935	631.8
566.34	625.6
566.745	641.2
567.172	628.8
567.577	651.8
567.982	636.8
568.409	626.6
568.815	618.6
569.22	633.2
569.626	630.8
570.053	618
570.459	636
570.865	631.2
571.292	625.4
571.698	628.2
572.104	620
572.531	627.4
572.937	623.4
573.343	624
573.75	623.6
574.177	620.8
574.583	627.4
574.99	628.6
575.396	625.6
575.824	620.4
576.231	633.2
576.637	618.2
577.065	649
577.472	613
577.879	617.4
578.286	628.2
578.714	610.2
579.121	612.6
579.528	625.8
579.935	629.6
580.364	601.8
580.771	597.2
581.178	607.2
581.585	617.2
582.014	627
582.421	613.6
582.829	609.2
583.236	632
583.644	609
584.073	608
584.481	621
584.889	608.2
585.296	621.2
585.726	617
586.134	599.2
586.542	601.4
586.95	628.2
587.358	594
587.787	617.2
588.196	628.6
588.604	610.8
589.012	608.6
589.421	601.6
589.851	599
590.259	606.2
590.668	598.6
591.076	645.2
591.485	592
591.894	607.4
592.324	616.8
592.733	612.2
593.142	591.4
593.551	607
593.96	635.8
594.369	604.8
594.8	592.4
595.209	602.4
595.618	590.6
596.028	599
596.437	595.8
596.847	605.4
597.256	600.4
597.687	609.4
598.097	602.6
598.507	593.8
598.917	613
599.327	610.2
599.736	607.8
600.146	610.6
600.556	613
600.988	614.6
601.398	601.2
601.808	618.8
602.219	589.6
602.629	600.6
603.039	607.2
603.45	626
603.86	605.4
604.271	613
604.703	612.6
605.114	601.8
605.525	605.4
605.935	602.8
606.346	628
606.757	608.8
607.168	604.2
607.579	596
607.99	616.2
608.402	603.8
608.813	601.8
609.224	602.2
609.636	591.4
610.047	605.4
610.48	593
610.892	605.8
611.303	606.4
611.715	606
612.127	592.6
612.539	592.6
612.95	594.6
613.362	594.4
613.774	588
614.186	596.4
614.599	598.8
615.011	602
615.423	606.8
615.835	599.6
616.248	590.2
616.66	610.8
617.073	593.6
617.485	608
617.898	602
618.311	600.2
618.723	606.4
619.136	628.8
619.549	611.2
619.962	624.4
620.375	599
620.788	603.4
621.201	602
621.614	603
622.028	597
622.441	608
622.854	609.2
623.268	587.4
623.681	594.8
624.095	604.4
624.509	608
624.922	606.4
625.336	590.8
625.728	600.4
626.142	606.2
626.556	622.6
626.97	601
627.384	592.4
627.799	596.6
628.213	614.4
628.627	601
629.041	590.2
629.456	596.8
629.87	599.8
630.285	605.4
630.699	611.8
631.093	594.2
631.507	592.2
631.922	596.6
632.337	611.6
632.752	587.8
633.167	598.4
633.582	587.4
633.997	593.2
634.412	589.8
634.806	593
635.221	583.4
635.637	606.8
636.052	587
636.468	595.8
636.883	608
637.299	589.2
637.715	585
638.109	600.8
638.525	579.2
638.941	604.6
639.357	592.8
639.773	612.6
640.189	587.2
640.584	594.8
641	594
641.416	589.2
641.832	593.4
642.249	590.8
642.665	590.4
643.06	601
643.477	608.2
643.894	576.6
644.31	587
644.727	591.2
645.123	596.6
645.54	588.4
645.957	590.6
646.374	604
646.77	593.8
647.187	611.4
647.604	595.2
648.021	578.6
648.439	592
648.835	600.2
649.252	593.8
649.67	588.6
650.088	595.8
650.484	591
650.902	597.2
651.32	600.4
651.738	586.6
652.134	594
652.552	616
652.971	602.2
653.389	597.6
653.786	603
654.204	616.8
654.622	581.4
655.019	587.6
655.438	590.4
655.857	590.4
656.275	594.2
656.673	579
657.091	599.2
657.51	581
657.908	603.6
658.327	608.8
658.746	581.4
659.144	593.2
659.563	612.2
659.982	592.4
660.38	576
660.8	597.4
661.219	601.8
661.617	600.6
662.037	594.8
662.457	599.8
662.855	588.4
663.275	627.2
663.695	594.8
664.094	594.8
664.514	595.4
664.934	593
665.333	597.6
665.753	589
666.152	578.2
666.572	591.2
666.993	600.6
667.392	585.2
667.812	592
668.212	584.6
668.632	604
669.053	587.4
669.453	602.2
669.874	593.8
670.273	594.6
670.694	580
671.116	599.6
671.515	602.8
671.937	585.4
672.337	587.6
672.758	596.8
673.158	595.6
673.58	581
673.98	582.4
674.402	599.6
674.824	587.8
675.224	596.6
675.646	596.2
676.047	591
676.469	590.6
676.869	595.8
677.292	597.8
677.693	585.2
678.115	588.2
678.516	591
678.939	589.6
679.34	591.6
679.762	602.6
680.164	597.4
680.586	588
680.988	592.2
681.411	616.4
681.812	595.2
682.236	584.4
682.637	589.2
683.061	583.2
683.462	586.2
683.864	590.4
684.288	594.8
684.69	580
685.114	597
685.516	603.2
685.94	584.2
686.342	598.8
686.766	589.4
687.168	583.2
687.571	604.4
687.995	583.8
688.398	572.8
688.822	589.6
689.225	602.2
689.628	602.2
690.052	583
690.456	592.6
690.88	591.4
691.284	582.4
691.687	592.2
692.112	577
692.515	587.2
692.919	591.8
693.344	591
693.747	587.4
694.173	584
694.577	597
694.98	591.6
695.406	591.8
695.81	601.6
696.214	592.8
696.64	598.4
697.044	593.6
697.448	593
697.874	589
698.279	595.4
698.684	582
699.11	583.4
699.514	588.4
699.919	590.8
700.324	574.2
700.75	591
701.156	585.4
701.561	601.2
701.987	591.6
702.393	596.4
702.798	600.6
703.203	593.2
703.63	592.2
704.036	588.4
704.442	589.6
704.847	576.8
705.274	591.2
705.68	592.6
706.086	589.4
706.492	571.4
706.92	590.6
707.326	598.4
707.732	582.8
708.139	578.2
708.545	581
708.973	581.4
709.38	584.8
709.786	581
710.193	606.8
710.6	588.8
711.028	587.2
711.435	591
711.842	581.4
712.249	587.2
712.656	578.4
713.064	603.4
713.492	583.4
713.9	585.6
714.307	590.2
714.715	584
715.123	590
715.53	585.8
715.938	594.2
716.367	594.4
716.775	580.8
717.184	589.6
717.592	586.8
718	597.4
718.408	620.6
718.816	625
719.225	585.8
719.633	592.2
720.042	574.8
720.472	583
720.881	614
721.29	592.2
721.699	580.8
722.108	594.6
722.517	588.4
722.926	584
723.335	590.8
723.744	583.2
724.154	588
724.563	591.8
724.973	589.2
725.382	585.6
725.792	582.4
726.202	576.4
726.612	602.6
727.022	583
727.432	574.6
779.813	587
780.223	627.4
780.634	587.8
781.044	583.4
781.454	579.2
781.865	595
782.276	573.4
782.686	595
783.097	577.6
783.508	581
783.919	588.4
784.33	597.8
784.741	590.2
785.152	579
785.563	575.2
785.974	582.4
786.386	592.8
786.776	582.2
787.188	584.8
787.599	584.6
788.011	588.4
788.423	592.6
788.835	579.6
789.247	579.6
789.659	579.2
790.071	585.8
790.483	625
790.874	579.8
791.286	589.2
791.699	585.6
792.111	585.4
792.524	587.8
792.937	595.2
793.349	573.8
793.741	586.2
794.154	582.6
794.567	598.6
794.98	586.4
795.393	567.8
795.785	597.2
796.198	578.2
796.612	581.6
797.026	582.2
797.439	561.8
797.831	577.6
798.245	569.4
798.659	573.2
799.073	574.2
799.487	568.2
799.88	588.2
800.294	579
800.708	588
801.123	589.2
801.516	594.4
801.93	570
802.345	572.4
802.76	576.6
803.153	596.2
803.568	595.8
803.983	582.8
804.377	583.4
804.792	567.8
805.207	565
805.601	586.8
806.016	613.8
806.432	575.4
806.826	612.4
807.242	601.6
807.658	593.8
808.052	581
808.468	579.8
808.884	583.2
809.279	579.8
809.695	595.6
810.111	595
810.506	586.6
810.922	609.4
811.339	583.4
811.734	590.8
812.151	578.6
812.546	578.2
812.963	577.8
813.38	596.4
813.776	588.6
814.193	605.2
814.589	577.6
815.006	578.8
815.402	580.4
815.82	587.6
816.237	590.4
816.633	585.4
817.051	579.2
817.448	588.2
817.866	574.6
818.262	603.6
818.68	579
819.077	588.2
819.495	586.6
819.892	620.8
820.311	575.2
820.708	576.8
821.127	577.4
821.524	591.4
821.943	583.4
822.34	600.6
822.759	593.2
823.157	584.6
823.576	598
823.974	595.2
824.393	632
824.791	581.8
825.189	572.2
825.609	581.2
826.007	574.4
826.427	570.6
826.826	567.4
827.246	588.8
827.644	573.8
828.043	600.8
828.463	581
828.862	596.4
829.261	595.2
829.682	574.8
830.081	586.4
830.502	568.2
830.901	578.8
831.301	605.6
831.722	571.8
832.121	586.2
832.521	580.2
832.943	581.2
833.342	577.2
833.742	576.8
834.164	583.8
834.564	569.4
834.965	576.8
835.386	575.8
835.787	577.2
836.188	580.4
836.588	580.6
837.01	580
837.411	577.2
837.812	585.2
838.213	584.6
838.636	584.4
839.037	649
839.438	581
839.84	578.2
840.263	598.6
840.664	587.4
841.066	580.4
841.468	583.4
841.891	581.6
842.293	593.8
842.695	593.6
843.098	598.6
843.5	582.8
843.902	589
844.326	581
844.729	586.8
845.131	593.6
845.534	583.2
845.937	593
846.34	599
846.764	582.4
847.167	592.4
847.571	568.2
847.974	577.2
848.377	585.6
848.781	630.8
849.184	596.8
849.588	581.8
849.992	593
850.396	590.4
850.821	604.2
851.225	592.2
851.63	584
852.034	606
852.438	587.4
852.843	605.4
853.247	571.2
853.652	586.6
854.057	602.2
854.462	589
854.867	587.4
855.272	610.8
855.677	576.8
856.082	574.8
856.487	570.6
856.893	584.8
857.298	575.4
857.704	585.2
858.11	582
858.516	591
858.922	588.2
859.328	595
859.734	580.6
860.14	587.8
860.525	593.2
860.931	576
861.338	584
861.745	589.6
862.151	589.8
862.558	577.2
862.965	581.2
863.372	585.8
863.779	582
864.186	604.6
864.572	582.6
864.98	604.2
865.387	613.4
865.795	585.2
866.203	591.6
866.61	575.6
867.018	588
867.405	587.2
867.813	582.2
868.221	586
868.63	580.8
869.038	588.6
869.425	610
869.834	589.4
870.243	575.4
870.652	573.6
871.039	579.6
871.448	576.2
871.857	593.6
872.266	591.8
872.654	576.2
873.064	586
873.473	589.6
873.883	574.8
874.271	577.2
874.681	587.8
875.091	564
875.48	596
875.89	597.6
876.3	579.8
876.689	574.2
877.1	579.8
877.51	583.8
877.9	598.6
878.31	579.6
878.721	616.2
879.111	585.4
879.522	578.8
879.933	573.6
880.323	567.4
880.734	577.4
881.125	588.8
881.536	577.4
881.948	568
882.338	586.6
882.75	589.8
883.141	577.8
883.553	587
883.944	610
884.356	593
884.769	581.4
885.16	578.6
885.573	577.2
885.964	574.2
886.377	582.4
886.768	571.8
887.181	579.4
887.573	573.2
887.987	586.8
888.378	590
888.792	587
889.184	633.2
889.598	577.8
889.99	590.2
890.383	575.2
890.797	570.6
891.19	592.6
891.604	572.8
891.997	565.2
892.411	574.8
892.805	570.8
893.198	577
893.613	564.6
894.006	581.4
894.421	572
894.815	573.4
895.209	568.8
895.624	615
896.018	590
896.412	580.4
896.828	578.4
897.222	583
897.617	579.8
898.033	597.2
898.427	575.2
898.822	585.8
899.239	574.4
899.634	561.4
900.029	591
900.424	563.6
900.841	566.4
901.236	587.2
901.632	586.8
902.027	638
902.445	580.8
902.841	584.8
903.237	581.4
903.633	590.6
904.05	586.4
904.447	578.4
904.843	595.8
905.24	579.2
905.636	572.6
906.033	583.8
906.451	591.8
906.848	577.4
907.246	577.4
907.643	581.6
908.04	580.8
908.438	600
908.835	579.2
909.254	579.4
909.652	577.4
910.05	570.8
910.448	576.4
910.846	588
911.244	577
911.643	580.8
912.041	580.4
912.44	595.2
912.839	578.8
913.237	570.6
913.636	565.8
914.035	586.4
914.434	585.4
914.834	590.2
915.233	583.8
915.633	570.8
916.032	572.8
916.432	582.8
916.832	590
917.232	584.6
917.632	572.8
918.032	587
918.432	581.8
918.833	581.6
919.233	575.2
919.634	564
920.035	580.4
920.436	574
920.837	583.4
921.238	580
921.639	573.4
922.019	577.8
922.42	591.6
922.822	579.4
923.224	583.4
923.625	580.4
924.027	588.2
924.429	598.6
924.81	581.4
925.212	584.6
925.615	583.6
926.017	572.2
926.42	587.2
926.801	581.2
927.204	573.8
927.607	590.8
928.01	592.2
928.413	579
928.795	565.8
929.199	583.8
929.602	572.8
930.006	575
930.388	575.8
930.792	580.6
931.196	575
931.579	613.6
931.983	568.4
932.388	623
932.771	575.4
933.176	570.4
933.58	574.8
933.964	588.8
934.369	576.8
934.774	581.8
935.158	570.6
935.563	576.6
935.947	578.8
936.353	585.2
936.759	579
937.143	580.6
937.549	579.4
937.934	589.6
938.34	599.8
938.746	577
939.131	577.4
939.538	575.6
939.923	585.6
940.33	574.4
940.716	580.4
941.123	580.2
941.508	587.2
941.916	592.6
942.302	583.6
942.709	568.2
943.096	568.4
943.503	592
943.89	577
944.298	571
944.685	605.6
945.072	577.4
945.48	593.6
945.867	568.4
946.276	578.8
946.663	601
947.051	587
947.46	591.6
947.848	586.4
948.257	573.6
948.645	586
949.033	572.4
949.443	565.6
949.831	614.4
950.22	560.8
950.63	581.8
951.018	610.8
951.407	590.2
951.796	578.8
952.207	581.2
952.596	590.8
952.985	577.8
953.375	620.6
953.786	583.8
954.176	576.6
954.566	579
954.956	569
955.367	579.6
955.758	601
956.148	568.4
956.539	586.2
956.929	577.2
957.341	574.2
957.732	576.8
958.123	585
958.515	568.6
958.906	588.2
959.297	576.8
959.689	577.6
960.102	567.2
960.494	593.8
960.886	572.4
961.278	575.2
961.67	602.6
962.062	616.8
962.455	570.4
962.847	572.8
963.24	580.2
963.633	586.2
964.026	572.8
964.419	579.4
964.812	593
965.206	580.2
965.599	584.8
965.993	580.2
966.386	584.2
966.78	592.8
967.174	594.6
967.569	573.6
967.963	573.2
968.357	573.2
968.752	564.2
969.146	575
969.541	575
969.936	565.4
970.331	577.8
970.705	573.6
971.1	571.2
971.496	582.6
971.892	571
972.287	577.2
972.683	566.8
973.079	573.2
973.454	592.6
973.85	576.4
974.247	584.6
974.643	602.4
975.04	578.2
975.415	590.4
975.812	575.6
976.209	583.2
976.607	574.2
976.982	580
977.38	585.6
977.778	582.6
978.175	577.6
978.552	575.4
978.95	576
979.348	585.8
979.725	623
980.123	580.4
980.522	579.4
980.899	571.2
981.298	571.4
981.697	581.8
982.075	581
982.474	565.6
982.852	567.4
983.251	579.8
983.651	572.8
984.029	582
984.429	573.4
984.808	566.8
985.208	570.2
985.609	564.6
985.987	562
986.388	572.4
986.768	578.8
987.168	577
987.548	584
987.949	591.8
988.329	573.8
988.731	567.4
989.111	571.2
989.491	567
989.893	581.4
990.273	584.4
990.676	570
991.057	564.6
991.459	569.8
991.84	571.8
992.221	563.8
992.624	588.4
993.006	577
993.388	573.2
993.791	575.8
994.173	578.8
994.576	612.4
994.959	568
995.341	573.8
995.724	571.4
996.128	573
996.511	573.4
996.894	570.6
997.298	577.2
997.681	587.4
998.065	576
998.448	578
998.854	590
999.237	575.2
999.621	591.2
1000.01	598.2
1000.39	582
1000.8	567.6
1001.18	582
1001.56	584.4
1001.95	582.2
1002.33	591.6
1002.72	583.8
1003.13	575
1003.51	578.2
1003.9	573.6
1004.28	586
1004.67	573.6
1005.06	576.4
1005.44	597.6
1005.83	567
1006.21	569.8
1006.6	575.4
1006.99	582.4
1007.37	581.2
1007.76	570.8
1060.12	572.4
1060.51	567.6
1060.89	588.6
1061.28	587.4
1061.67	588.6
1062.06	579.6
1062.45	577.8
1062.83	572.4
1063.22	575.4
1063.61	614
1064	584.6
1064.39	582.6
1064.78	573.8
1065.14	593.6
1065.53	576.8
1065.92	576.8
1066.31	568.2
1066.7	586
1067.09	597
1067.46	579.8
1067.85	583.6
1068.24	577
1068.63	580.6
1069.02	572.4
1069.39	577.4
1069.78	566
1070.17	582
1070.57	574.2
1070.93	572
1071.33	570.6
1071.72	579.4
1072.11	570.4
1072.48	569.2
1072.87	574
1073.26	576.2
1073.64	572
1074.03	560.8
1074.4	571.6
1074.79	572.8
1075.19	571.4
1075.56	571.4
1075.95	579
1076.34	571.6
1076.72	573
1077.11	569.8
1077.48	583.2
1077.88	578.4
1078.25	573.4
1078.64	582.2
1079.02	583.2
1079.41	575.4
1079.78	571
1080.18	566.2
1080.55	640.4
1080.95	569.8
1081.32	571.4
1081.72	581.2
1082.09	576.4
1082.49	566.6
1082.86	577.4
1083.24	570.4
1083.63	566.2
1084.01	571.6
1084.38	578.4
1084.78	572.2
1085.16	571.4
1085.55	589.6
1085.93	594.2
1086.31	563.8
1086.7	599.6
1087.08	577
1087.46	581.8
1087.83	559.4
1088.23	581.8
1088.61	575
1088.99	582.2
1089.36	570
1089.76	577.6
1090.14	561.6
1090.52	572
1090.9	572
1091.27	595.2
1091.67	603.4
1092.05	579.8
1092.43	579.8
1092.81	582.6
1093.19	576.4
1093.57	571.2
1093.95	579.8
1094.35	586.6
1094.73	586.4
1095.11	567.8
1095.49	570
1095.87	572.6
1096.25	584.6
1096.63	587.2
1097.01	572.6
1097.39	580.6
1097.77	570
1098.15	573.2
1098.53	567.6
1098.91	575
1099.29	577.4
1099.68	597.8
1100.06	583.6
1100.44	571.4
1100.82	583
1101.18	578
1101.56	571
1101.95	569.2
1102.33	578.6
1102.71	578.2
1103.1	571.6
1103.48	564.2
1103.86	565.4
1104.22	571.6
1104.61	580.6
1104.99	576
1105.38	571.4
1105.76	578.2
1106.12	572.4
1106.51	607.6
1106.89	592.6
1107.26	572.4
1107.64	581.6
1108.03	569.8
1108.41	565.6
1108.78	572.6
1109.16	582.6
1109.55	590
1109.91	560
1110.3	559
1110.69	583.4
1111.05	569
1111.44	570.2
1111.8	567.8
1112.19	568.4
1112.58	576.6
1112.94	583.2
1113.33	575.4
1113.7	566.6
1114.09	565.8
1114.45	566.6
1114.84	569.8
1115.21	582.8
1115.6	569.6
1115.96	583.6
1116.35	585.2
1116.72	562.2
1117.11	586.6
1117.48	572
1117.85	576.8
1118.24	585.2
1118.6	580.2
1118.99	571.2
1119.36	590.2
1119.73	576
1120.12	576.2
1120.49	562.6
1120.86	574.2
1121.25	581.6
1121.62	564.2
1121.99	572.6
1122.38	585
1122.76	576.2
1123.13	574.2
1123.5	577.8
1123.89	572.4
1124.26	561.4
1124.63	578.8
1125	575.2
1125.4	571.4
1125.77	562.2
1126.14	552.8
1126.51	571.2
1126.88	576.6
1127.26	572.4
1127.63	558
1128.02	569.2
1128.4	564.6
1128.77	575.8
1129.14	570
1129.52	575.4
1129.89	576.6
1130.26	564.6
1130.64	559
1131.01	558.6
