#lambda/nm	C1
208.295	510.6
208.67	463
209.045	429
209.419	432.4
209.794	614.2
210.169	604.6
210.544	733.4
210.919	627.2
211.295	612
211.67	619.4
212.045	612.8
212.421	611.2
212.796	661.2
213.172	615.6
213.547	607
213.923	612.6
214.299	611.6
214.675	622.4
215.051	620.4
215.427	623.6
215.803	635.4
216.179	615.2
216.555	616.8
216.932	629.2
217.308	623
217.684	617.8
218.061	628.6
218.438	623
218.814	617.6
219.191	621
219.568	611.8
219.945	614
220.322	620.8
220.699	624.4
221.076	628.8
221.453	619.8
221.83	608.4
222.208	624.2
222.585	607.8
222.962	612
223.34	619
223.717	621.4
224.095	609.2
224.473	613.6
224.851	606.4
225.229	608.8
225.607	634.6
225.985	607
226.363	621.6
226.741	613.6
227.119	606.2
227.497	624.6
227.876	603.4
228.254	620.6
228.633	619.2
229.011	608.6
229.39	611
229.769	609.2
230.148	622.8
230.527	620.6
230.905	618.6
231.284	613
231.664	607.2
232.043	628.8
232.422	624.4
232.801	617.2
233.181	616
233.56	612.6
233.94	620.6
234.319	609.6
234.699	617
235.079	662.8
235.458	661.2
235.838	635.2
236.218	616.6
236.598	608.8
236.978	612.6
237.358	614.4
237.738	609.4
238.119	624.4
238.499	601.4
238.88	610.4
239.26	638.6
239.641	607.6
240.021	613
240.402	616.4
240.783	605
241.163	618.2
241.544	620.6
241.925	613.8
242.306	628.2
242.687	618.8
243.069	620.6
243.45	621.6
243.831	615.4
244.212	608.8
244.594	652.6
244.975	618.6
245.357	618.2
245.739	613.2
246.12	623
246.502	630
246.884	611.8
247.266	613.4
247.648	613.6
248.03	629.2
248.412	617.2
248.794	618
249.176	605
249.559	622.2
249.941	614.8
250.323	605.6
250.706	604.2
251.089	614.4
251.471	623.6
251.854	608.6
252.237	616.2
252.62	621
253.002	617.8
253.385	613.6
253.769	624.8
254.152	621.8
254.535	627.4
254.918	603.6
255.301	613.6
255.685	611.4
256.068	612.4
256.452	639.8
256.835	623.2
257.219	618.6
257.603	621.8
257.986	613.4
258.37	620.2
258.754	607.6
259.138	626.2
259.522	630.4
259.906	615.6
260.29	619.6
260.675	612.6
261.059	615.2
261.443	611.4
261.828	618.8
262.212	628.2
262.597	595.8
262.981	610.2
263.366	626.4
263.751	619.4
264.136	617.4
264.521	626.4
264.906	611
265.291	624.6
265.676	615.2
266.061	620.6
266.446	640.4
266.831	613
267.217	633.6
267.602	621
267.987	621.2
268.373	611.8
268.759	623
269.144	615.6
269.53	611.4
269.916	612.4
270.302	612.6
270.688	613.8
271.074	610.4
271.46	627.4
271.846	647.4
272.232	616.6
272.618	603.6
273.004	610.2
273.391	628
273.777	627
274.164	615.2
274.55	632.2
274.937	620.4
275.324	607.8
275.71	623.4
276.097	625.4
276.484	608.8
276.871	617.6
277.258	624
277.645	611.6
278.032	608.2
278.419	613.6
278.807	618
279.194	616.2
279.581	613
279.969	620.2
280.356	625.8
280.744	619.4
281.131	641.6
281.519	632
281.907	616.2
282.295	617.6
282.682	630.8
283.07	619.6
283.458	624.8
283.846	628.8
284.235	621.8
284.623	625.4
285.011	605.8
285.399	618.6
285.788	615.6
286.176	604.6
286.565	626.4
286.953	600.2
287.342	617
287.731	603.8
288.119	605.4
288.508	617.6
288.897	609.2
289.286	607.8
289.675	614.6
290.064	629.8
290.453	618
290.821	612.6
291.21	632.4
291.599	617.6
291.989	614
292.378	625.2
292.768	639.6
293.157	623.4
293.547	628.6
293.936	611.4
294.326	613.4
294.716	616.6
295.106	617.2
295.496	624.2
295.886	635
296.276	608
296.666	609.6
297.056	611.8
297.446	608
297.836	635.2
298.227	606.8
298.617	613.4
299.008	637.4
299.398	612.2
299.789	619.4
300.179	623.8
300.57	634
300.961	614.8
301.352	612.2
301.742	627.4
302.133	614.6
302.524	613.8
302.915	613.2
303.307	612.2
303.698	622.6
304.089	626.2
304.48	627.4
304.872	629.6
305.263	623.2
305.655	614.6
306.046	622.4
306.438	624.2
306.829	615.2
307.221	626
307.613	625
308.005	628.6
308.397	633
308.789	636
309.181	650.8
309.573	630.4
309.965	637.2
310.357	621.2
310.749	632.4
311.142	610.2
311.534	613.8
311.926	628.8
312.319	618.4
312.711	616.6
313.104	639.4
313.497	624.2
313.889	652.2
314.282	635.6
314.675	641.6
315.068	620.2
315.461	619.8
315.854	656.8
316.247	628
316.64	617.4
317.033	618.6
317.405	620.8
317.798	619.6
318.192	633.2
318.585	615
318.979	623.6
319.372	609.4
319.766	617.8
320.16	623.2
320.553	643.6
320.947	640.8
321.341	618
321.735	619
322.129	606.8
322.523	645.6
322.917	609.6
323.311	625.2
323.705	623
324.099	623.2
324.494	635.2
324.888	630.6
325.282	620
325.677	625.2
326.071	621.8
326.466	622.2
326.861	619.4
327.255	630.2
327.65	627.6
328.045	639.8
328.44	617.6
328.835	614.2
329.23	610
329.625	644.4
330.02	617.8
330.415	628.2
330.81	623.4
331.206	620.2
331.601	615.4
331.996	632.2
332.37	641.8
332.766	623.4
333.161	642.6
333.557	617.4
333.953	621.6
334.348	939.2
334.744	612
335.14	609.6
335.536	621.8
335.932	621.8
336.328	622
336.724	621
337.12	616.6
337.516	627
337.913	624.8
338.309	629.2
338.705	619.4
339.102	631.6
339.498	609
339.895	627.6
340.291	611.8
340.688	629.6
341.085	615.6
341.481	617.4
341.878	615.6
342.275	635.2
342.672	608.6
343.069	611
343.466	596.8
343.842	623
344.239	598.6
344.636	608.6
345.033	601.4
345.431	603.8
345.828	609.8
346.225	607.8
346.623	658.4
347.02	603.8
347.418	616.8
347.816	633.8
348.213	613.2
348.611	619.2
349.009	612.6
349.407	631.8
349.805	609.6
350.203	604.4
350.601	635.4
350.999	605.8
351.397	680.2
351.795	615.4
352.193	627.8
352.57	620.8
352.969	622
353.367	607.6
353.766	607.8
354.164	617
354.563	628.6
354.961	619.2
355.36	613.2
355.759	610.8
356.158	603
356.557	609.2
356.956	604.2
357.355	601.4
357.754	612.6
358.153	614.2
358.552	634.2
358.951	620.2
359.35	619.8
359.75	609
360.149	607.4
360.527	601.8
360.926	609.8
361.326	612.6
361.726	608.2
362.125	604.8
362.525	619.6
362.925	608
363.325	608.6
363.724	609.4
364.124	601.6
364.524	605.8
364.924	610.2
365.324	618.2
365.725	594.6
366.125	620
366.525	608
366.904	596.8
367.304	597
367.705	625.6
368.105	623.8
368.506	613.6
368.906	614.4
369.307	607.8
369.708	613.2
370.108	595.4
370.509	620.4
370.91	601.4
371.311	615.2
371.712	610.6
372.113	605.8
372.514	593.6
372.894	597.4
373.295	600.4
373.696	612
374.097	609.8
374.499	638.6
374.9	603.4
375.301	603.2
375.703	603.2
376.105	597.8
376.506	619.4
376.908	611.8
377.309	608
377.711	604.4
378.113	598.4
378.493	599.2
378.895	603.4
379.297	619.6
379.699	603.8
380.102	613.4
380.504	613.4
380.906	605
381.308	638
381.71	604.8
382.113	615
382.515	600.6
382.918	608.2
383.299	605.2
383.701	622.6
384.104	617.2
384.507	590.2
384.909	601.2
385.312	594.8
385.715	598.2
386.118	605.6
386.521	600.2
386.924	618.4
387.327	610
387.709	595.6
388.112	588.4
388.515	609
388.918	611.2
389.322	618
389.725	604.2
390.129	627.8
390.532	617.8
390.936	609.2
391.339	600
391.743	616.4
392.125	605.6
392.529	618
392.933	630.8
393.337	610
393.74	616.2
394.144	610.8
394.548	603
394.953	615.8
395.357	619
395.761	604
396.144	616.8
396.548	612.8
396.952	603
397.357	599.8
397.761	604
398.166	606.8
398.57	620.6
398.975	603.6
399.379	611
399.763	658.8
400.168	613.4
400.572	612.4
400.977	610.8
401.382	626
401.787	615.2
402.192	633.8
402.597	627
403.002	596.6
403.386	621
403.791	628.4
404.197	603.4
404.602	607.8
405.007	614.8
405.413	605.2
405.818	604.8
406.224	601.4
406.608	600
407.014	605
407.42	630.2
407.825	602.8
408.231	625.2
408.637	613.8
409.043	621.2
409.449	606.4
409.834	599.6
410.24	614.4
410.646	616.6
411.052	626.6
411.458	610
411.865	615.6
412.271	617.4
412.677	608.4
413.062	621.8
413.469	609.2
413.875	637.2
414.282	624.8
414.689	626.2
415.095	614.6
415.502	613
415.888	620.2
416.294	587.6
416.701	656.8
417.108	605.4
417.515	616.2
417.923	605.6
418.33	630
418.715	620.2
419.123	604.2
419.53	612.8
419.937	607.4
420.345	635.6
420.752	595.4
421.16	625.4
421.546	602
421.953	612
422.361	605.2
422.769	615.2
423.177	601
423.585	636.6
423.992	627
424.379	613.4
424.787	619.8
425.195	632.6
425.603	617.6
426.011	624.8
426.419	621
426.806	606.6
427.214	611.4
427.623	626.8
428.031	632.4
428.44	616.8
428.848	627.2
429.235	621
429.644	619.6
430.053	616.4
430.461	628.2
430.87	634.8
431.279	632.8
431.666	607.8
432.075	617.4
432.484	620.6
432.893	610.2
433.302	635.6
433.711	658.6
434.099	620.6
434.508	613.6
434.918	610.6
435.327	623.2
435.737	621.2
436.125	629.2
436.534	630.4
436.944	628.2
437.353	628
437.763	646.4
438.173	627.2
438.561	639.2
438.971	618.6
439.381	628
439.791	638.6
440.201	625
440.589	647.8
440.999	656.2
441.409	654.6
441.819	647.2
442.23	662.2
442.619	675.8
443.029	664.6
443.439	675.2
443.85	685.6
444.26	692.4
444.649	689.8
445.06	684.8
445.471	679.6
445.881	680.4
446.292	697.8
446.682	715.2
447.092	688
447.503	748.2
447.914	696.2
448.325	701.6
448.715	708.8
449.126	704.8
449.537	708.8
449.948	708.8
450.338	720
450.75	727.6
451.161	711.8
451.572	726
451.984	711.6
452.374	710
452.786	724.2
453.197	731.6
453.609	743
453.999	721.4
454.411	722.4
454.823	744
455.235	733.6
455.647	725.4
456.037	734.6
456.449	728.8
456.862	735
457.274	736.6
457.665	735.4
458.077	736.2
458.489	768
458.902	739.4
459.293	741.4
459.705	747
460.118	738.8
460.53	747.8
460.921	741
461.334	752.4
461.747	753
462.16	766
462.551	755.2
462.964	752.4
463.377	734.4
463.79	750.8
464.182	762.2
464.595	742.8
465.008	752.4
465.421	764.4
465.813	753.2
466.226	766.8
466.64	756.6
467.053	807.8
467.445	777.2
467.859	773.8
468.272	757.6
468.686	780.8
469.078	756.6
469.492	757.6
469.906	763
470.298	767.6
470.712	762.2
471.126	807.6
471.54	755.2
471.933	764.6
472.347	756.6
472.761	763
473.175	767
473.568	765.6
473.982	760.6
474.397	767.2
474.79	762.6
475.204	771.4
475.619	769.2
476.033	782.6
476.426	755.8
476.841	757.4
477.256	781.2
477.649	764.8
478.064	758.2
478.479	749
478.872	764.6
479.287	743.4
479.702	758.8
480.118	767.6
480.511	761.6
480.927	765.6
481.342	762.8
481.736	767.2
482.151	753.4
482.566	778.2
482.96	771.2
483.376	772.4
483.792	757
484.186	767.8
484.602	762.2
485.017	767
485.412	749.2
485.827	767
486.243	763
486.638	777.8
487.054	760.4
487.47	785.6
487.865	750.8
488.281	762.4
488.697	749.2
489.092	756.4
489.508	748.2
489.925	764.2
490.32	747.8
490.736	760.6
491.153	756.8
491.548	757.6
491.964	767.2
492.381	740.8
492.776	747
493.193	750.6
493.61	752.4
494.006	756.4
494.422	747.8
494.84	741.8
495.235	750
495.652	737.8
496.069	744
496.465	730.8
496.883	751.6
497.3	761.6
497.696	729.2
498.113	748
498.509	727
498.927	727
499.344	725
499.741	732.2
500.158	751.2
500.576	739.2
500.973	731.2
501.39	719.2
501.787	720
502.205	731.4
502.623	718.6
503.02	725
503.438	714.2
503.856	718.2
504.253	722.4
504.671	726
505.068	710.8
505.486	720.8
505.905	738.4
506.302	724.6
506.72	730.6
507.118	709.8
507.536	714.8
507.955	715.2
508.352	709.2
508.771	720.4
509.169	722
509.587	701.8
510.006	715.6
510.404	703.4
510.823	703
511.221	703.8
511.64	703.2
512.038	725.6
512.457	698.6
512.877	705.4
513.275	690.2
513.694	703.8
514.092	690
514.512	694
514.91	704
515.33	691.2
515.749	697
516.148	694
516.568	695.6
516.966	691.8
517.386	686.2
517.785	693.8
518.205	679.6
518.603	683
519.024	678
519.444	684
519.843	692
520.263	691
520.662	683.8
521.082	676
521.481	685.2
521.902	687.6
522.301	686.2
522.722	693.8
523.121	678.8
523.542	674
523.963	678.2
524.362	677
524.783	672.4
525.183	678.8
525.604	680.2
526.003	666.8
526.425	668.8
526.824	684.4
527.246	682.4
527.646	680.2
528.067	672
528.467	666.6
528.888	668.8
529.289	671.8
529.71	662
530.11	664.2
530.532	663
530.932	664
531.354	659.4
531.755	698
532.176	668.8
532.577	653.2
532.999	660.2
533.4	657.6
533.822	670.2
534.223	661.8
534.645	646.4
535.046	649.8
535.468	658.8
535.869	666
536.292	654.8
536.693	685
537.115	660
537.516	651.6
537.939	646.8
538.34	663.8
538.742	657.6
539.165	652.8
539.566	651.6
539.989	655.6
540.391	645.6
540.814	658.2
541.216	646.2
541.639	652.4
542.041	652
542.464	637.8
542.866	635.4
543.268	643.6
543.691	656.4
544.093	656.4
544.517	675.2
544.919	639.8
545.343	666.6
545.745	640
546.147	644.8
546.571	651.6
546.974	635.4
547.398	650.2
547.8	652.8
548.224	640.4
548.627	627.6
549.03	649.4
549.454	634.2
549.857	633.8
550.281	631.6
550.684	635.8
551.087	647.8
551.512	648.2
551.915	642.8
552.34	635
552.743	635.4
553.146	640.2
553.571	645.2
553.975	655.6
554.399	625
554.803	683
555.207	634
555.632	631
556.036	645
556.461	628.2
556.865	629.2
557.268	631.4
557.694	610.2
558.098	638
558.502	634.8
558.927	629.4
559.332	633.2
559.736	623.2
560.162	633.8
560.566	625
560.992	636.4
561.396	627
561.801	633.2
562.227	624.8
562.631	623
563.036	628.4
563.462	632.8
563.867	628.2
564.272	604.2
564.698	630.6
565.103	611
565.508	648
565.935	626.2
566.34	618
566.745	636.6
567.172	611
567.577	636
567.982	632
568.409	630.2
568.815	612.4
569.22	617.2
569.626	624.2
570.053	604.8
570.459	624.4
570.865	629.2
571.292	620.8
571.698	630.8
572.104	611.4
572.531	615
572.937	628.6
573.343	613.6
573.75	616.6
574.177	623.2
574.583	614.2
574.99	617.8
575.396	614.4
575.824	611.6
576.231	627.8
576.637	616
577.065	638.6
577.472	610.8
577.879	610.8
578.286	629
578.714	601.8
579.121	605.4
579.528	625.8
579.935	624.8
580.364	604.6
580.771	596.4
581.178	611.4
581.585	616
582.014	622.2
582.421	612.2
582.829	615.4
583.236	622.2
583.644	611.6
584.073	613.2
584.481	608.2
584.889	613.2
585.296	617.6
585.726	617.2
586.134	609
586.542	602.6
586.95	635
587.358	603.2
587.787	618.2
588.196	622
588.604	605.2
589.012	606.6
589.421	593
589.851	598.2
590.259	603.6
590.668	605.2
591.076	642.4
591.485	609
591.894	606.6
592.324	627.8
592.733	618.4
593.142	602
593.551	607.4
593.96	615
594.369	591.2
594.8	602
595.209	606.6
595.618	593.2
596.028	599.8
596.437	595.8
596.847	594.8
597.256	609.8
597.687	615.6
598.097	604.8
598.507	597.2
598.917	603.6
599.327	602.6
599.736	598.2
600.146	607.4
600.556	606.4
600.988	613.6
601.398	601.6
601.808	614.8
602.219	588.8
602.629	601.8
603.039	599.8
603.45	630.8
603.86	600.2
604.271	619.2
604.703	603.8
605.114	592.4
605.525	597.8
605.935	612
606.346	625.8
606.757	604.6
607.168	604.6
607.579	601.2
607.99	612
608.402	605.2
608.813	601.8
609.224	601.8
609.636	595
610.047	595.4
610.48	591.6
610.892	614.8
611.303	612
611.715	605.6
612.127	594.2
612.539	595
612.95	596.6
613.362	586.6
613.774	596
614.186	588.8
614.599	595.6
615.011	611
615.423	604.6
615.835	592
616.248	584.6
616.66	595.6
617.073	593.2
617.485	598.4
617.898	603.6
618.311	605.8
618.723	596
619.136	625.8
619.549	616.4
619.962	613
620.375	599.2
620.788	599.6
621.201	593
621.614	611.2
622.028	598
622.441	605
622.854	614.8
623.268	595.2
623.681	603
624.095	601.4
624.509	608.6
624.922	604.2
625.336	589.2
625.728	595
626.142	603
626.556	618.4
626.97	600.6
627.384	588.6
627.799	599.2
628.213	607.6
628.627	600.6
629.041	591.6
629.456	598.8
629.87	595.4
630.285	601
630.699	602.2
631.093	588.6
631.507	599
631.922	597.6
632.337	616.2
632.752	579.6
633.167	595.6
633.582	584.2
633.997	588.4
634.412	593.2
634.806	601.2
635.221	589.4
635.637	597.4
636.052	592
636.468	595.2
636.883	608.2
637.299	587.8
637.715	583.6
638.109	594.2
638.525	585.4
638.941	602.4
639.357	599.4
639.773	608.6
640.189	589.2
640.584	592.2
641	593.6
641.416	584
641.832	589.2
642.249	582.6
642.665	597.2
643.06	597.2
643.477	597.4
643.894	580.4
644.31	597.4
644.727	592.6
645.123	597.8
645.54	591.4
645.957	594.2
646.374	605.4
646.77	597.6
647.187	625.8
647.604	600.8
648.021	584.2
648.439	601
648.835	598.4
649.252	599.8
649.67	588.8
650.088	590.2
650.484	593.6
650.902	602
651.32	605.2
651.738	596
652.134	596.8
652.552	612.2
652.971	596.4
653.389	584.6
653.786	611.8
654.204	612.4
654.622	582.4
655.019	595.4
655.438	597
655.857	593.6
656.275	594.8
656.673	588
657.091	600.4
657.51	590.6
657.908	603.8
658.327	611.4
658.746	580.2
659.144	588
659.563	605.6
659.982	590.8
660.38	578.6
660.8	592.6
661.219	595.8
661.617	591.2
662.037	595.4
662.457	603.2
662.855	582
663.275	619
663.695	584.4
664.094	584.8
664.514	594.8
664.934	580.6
665.333	595.6
665.753	581.2
666.152	578.4
666.572	575.6
666.993	600.6
667.392	584.2
667.812	585.8
668.212	584
668.632	596.8
669.053	588.8
669.453	597.4
669.874	589.4
670.273	594
670.694	585
671.116	598.8
671.515	597.4
671.937	586.6
672.337	583
672.758	586.8
673.158	592.8
673.58	583.6
673.98	595
674.402	601.6
674.824	593.4
675.224	585
675.646	578.8
676.047	584.4
676.469	594
676.869	594.8
677.292	590
677.693	594.4
678.115	588.8
678.516	597
678.939	592.8
679.34	599.4
679.762	599.2
680.164	596.4
680.586	584.8
680.988	598.4
681.411	611.4
681.812	582.8
682.236	587
682.637	576.2
683.061	580.2
683.462	592.6
683.864	591.8
684.288	596.8
684.69	583
685.114	597.6
685.516	599.4
685.94	588
686.342	596
686.766	582.6
687.168	588.4
687.571	604.8
687.995	589
688.398	578.2
688.822	586.8
689.225	604.2
689.628	609
690.052	595
690.456	589.6
690.88	586.2
691.284	577.4
691.687	591
692.112	579.2
692.515	581
692.919	592
693.344	592.8
693.747	584.8
694.173	582.4
694.577	599.8
694.98	586.8
695.406	578.8
695.81	585.8
696.214	598
696.64	597
697.044	590.2
697.448	600.2
697.874	585.8
698.279	593.6
698.684	577.6
699.11	577.2
699.514	583
699.919	592.8
700.324	577.8
700.75	593.6
701.156	585.8
701.561	597.6
701.987	596
702.393	598
702.798	604
703.203	592.6
703.63	578.8
704.036	578.6
704.442	594.2
704.847	585.8
705.274	582
705.68	595.2
706.086	597.6
706.492	582.6
706.92	592.2
707.326	595.8
707.732	583.4
708.139	578.4
708.545	580
708.973	586.8
709.38	588
709.786	581.2
710.193	596.2
710.6	584.4
711.028	583
711.435	591.6
711.842	594.4
712.249	589.6
712.656	597.2
713.064	594
713.492	582
713.9	578.6
714.307	590.4
714.715	584.8
715.123	589.6
715.53	592.4
715.938	603.8
716.367	592.2
716.775	588.2
717.184	580.2
717.592	582.4
718	585.8
718.408	621.6
718.816	637.6
719.225	587.6
719.633	585.8
720.042	584
720.472	589.6
720.881	602.4
721.29	589.2
721.699	579
722.108	593
722.517	590.8
722.926	581.4
723.335	597.4
723.744	596
724.154	587
724.563	583
724.973	586.4
725.382	587.4
725.792	585
726.202	582.8
726.612	604.4
727.022	579.8
727.432	574.6
779.813	583.2
780.223	626.6
780.634	580.6
781.044	580.4
781.454	587.4
781.865	599
782.276	567.6
782.686	603
783.097	587
783.508	581
783.919	583
784.33	598
784.741	599.4
785.152	583
785.563	574
785.974	572.6
786.386	593.4
786.776	585.6
787.188	584.2
787.599	574.2
788.011	584.6
788.423	593.2
788.835	582.6
789.247	579.2
789.659	584.4
790.071	588.6
790.483	626.8
790.874	578.8
791.286	588.8
791.699	584
792.111	592.2
792.524	593
792.937	584
793.349	587.8
793.741	585
794.154	578.2
794.567	602.4
794.98	587.2
795.393	581.8
795.785	601.8
796.198	580.4
796.612	584.4
797.026	584.6
797.439	561.6
797.831	579.4
798.245	574.2
798.659	583.6
799.073	591.4
799.487	577.6
799.88	579.4
800.294	582.6
800.708	588.8
801.123	584.6
801.516	610.2
801.93	569.2
802.345	570.6
802.76	584.2
803.153	590.2
803.568	592.4
803.983	587.4
804.377	594.6
804.792	571.6
805.207	566.4
805.601	588.2
806.016	619.4
806.432	573
806.826	616.4
807.242	596.6
807.658	587
808.052	578.2
808.468	576.2
808.884	583.8
809.279	586.4
809.695	584.2
810.111	607.4
810.506	577.4
810.922	600.6
811.339	576.4
811.734	582.4
812.151	582.6
812.546	575.4
812.963	577.8
813.38	587.2
813.776	579.6
814.193	608.2
814.589	581.4
815.006	577.8
815.402	578.8
815.82	583.6
816.237	582.2
816.633	584.6
817.051	576
817.448	581.4
817.866	571.2
818.262	602.4
818.68	569.4
819.077	573.4
819.495	573.6
819.892	614.4
820.311	577.4
820.708	584.2
821.127	588.2
821.524	593.8
821.943	587.6
822.34	600.6
822.759	583
823.157	580.2
823.576	603.2
823.974	586.2
824.393	632.2
824.791	583
825.189	574.2
825.609	582
826.007	581.8
826.427	569.8
826.826	576.6
827.246	587.6
827.644	567.6
828.043	598
828.463	584.2
828.862	594.4
829.261	594
829.682	575.8
830.081	593
830.502	577.2
830.901	587.4
831.301	598.4
831.722	582.2
832.121	585.6
832.521	585.2
832.943	588.8
833.342	585.8
833.742	572.6
834.164	581.8
834.564	573.2
834.965	583.4
835.386	576
835.787	573.6
836.188	588.2
836.588	588.4
837.01	582.4
837.411	580.8
837.812	594.2
838.213	586.6
838.636	573.2
839.037	659.6
839.438	592.8
839.84	592.2
840.263	588.4
840.664	584.6
841.066	584.8
841.468	588.8
841.891	575.2
842.293	590.4
842.695	583.4
843.098	590.4
843.5	575.8
843.902	598.8
844.326	594.6
844.729	586.2
845.131	592.4
845.534	581.6
845.937	594.8
846.34	593.2
846.764	587.8
847.167	589.4
847.571	573.2
847.974	588.6
848.377	582.2
848.781	628.6
849.184	599.8
849.588	584.6
849.992	580.4
850.396	585.6
850.821	601.2
851.225	596
851.63	583.2
852.034	591.8
852.438	586.6
852.843	654.8
853.247	574
853.652	579.8
854.057	601.4
854.462	593
854.867	588
855.272	610.6
855.677	595.2
856.082	574.4
856.487	579.8
856.893	589
857.298	583.8
857.704	573.4
858.11	585.6
858.516	585.8
858.922	582.4
859.328	582.6
859.734	581
860.14	595.4
860.525	591.6
860.931	578
861.338	585.6
861.745	583
862.151	593.2
862.558	578.2
862.965	583
863.372	574.2
863.779	576.6
864.186	601.8
864.572	583.8
864.98	598.2
865.387	613.8
865.795	577
866.203	586.6
866.61	572.2
867.018	589
867.405	585.8
867.813	577.8
868.221	584
868.63	576.4
869.038	591.8
869.425	613.6
869.834	580
870.243	578.8
870.652	574.8
871.039	579.4
871.448	582.8
871.857	585.2
872.266	581.4
872.654	574
873.064	572.2
873.473	588.2
873.883	578.4
874.271	574.6
874.681	592.6
875.091	570.8
875.48	578.2
875.89	590.2
876.3	578.4
876.689	563.8
877.1	574.4
877.51	581.4
877.9	599.8
878.31	576.8
878.721	614.4
879.111	583.4
879.522	577
879.933	576.8
880.323	570.8
880.734	576
881.125	577.2
881.536	574.6
881.948	570.4
882.338	585.4
882.75	577.6
883.141	575.6
883.553	579.6
883.944	608.8
884.356	578.6
884.769	570.6
885.16	572.4
885.573	578.2
885.964	567.2
886.377	584.4
886.768	566.8
887.181	585.4
887.573	571.8
887.987	590.8
888.378	602.4
888.792	585.8
889.184	627
889.598	580.2
889.99	590
890.383	577
890.797	574.4
891.19	595.8
891.604	575.2
891.997	570.8
892.411	586
892.805	569
893.198	577.4
893.613	561.8
894.006	575.6
894.421	564.8
894.815	585.6
895.209	576.4
895.624	622.4
896.018	600
896.412	577.6
896.828	574.8
897.222	577
897.617	579.2
898.033	599.8
898.427	581
898.822	581.6
899.239	578.4
899.634	573.8
900.029	598.4
900.424	568.6
900.841	559.4
901.236	588.8
901.632	595.6
902.027	635.4
902.445	587.6
902.841	581
903.237	576
903.633	586.6
904.05	580.4
904.447	587.4
904.843	583.8
905.24	578.6
905.636	568
906.033	574.6
906.451	592.6
906.848	561.6
907.246	570.6
907.643	572
908.04	580.6
908.438	601
908.835	586.4
909.254	579.2
909.652	585.4
910.05	575.2
910.448	575.6
910.846	586.8
911.244	570.8
911.643	584.4
912.041	578.4
912.44	590.2
912.839	573.8
913.237	578
913.636	561.8
914.035	586
914.434	572.6
914.834	589
915.233	590.4
915.633	576.8
916.032	574
916.432	579.2
916.832	591.4
917.232	568.8
917.632	573.6
918.032	577.8
918.432	575.2
918.833	586.6
919.233	582.6
919.634	572.6
920.035	582
920.436	575.4
920.837	587.8
921.238	567.8
921.639	575.4
922.019	576.8
922.42	579
922.822	581.4
923.224	579.6
923.625	576.2
924.027	575
924.429	599
924.81	583.4
925.212	582
925.615	586.6
926.017	576.2
926.42	588.4
926.801	580.2
927.204	586.2
927.607	581.6
928.01	588.4
928.413	582.4
928.795	572.6
929.199	575.6
929.602	576
930.006	583.2
930.388	576.6
930.792	584.4
931.196	581.6
931.579	621.6
931.983	566.6
932.388	623.4
932.771	573
933.176	569.4
933.58	585.2
933.964	588.8
934.369	568.4
934.774	585.4
935.158	580.2
935.563	582.2
935.947	583.4
936.353	590.8
936.759	581
937.143	586.2
937.549	587
937.934	585.8
938.34	597
938.746	576.4
939.131	578.4
939.538	574
939.923	586.4
940.33	565.6
940.716	589.4
941.123	583.2
941.508	581.6
941.916	609.4
942.302	576.6
942.709	569.4
943.096	571.6
943.503	585.6
943.89	582.6
944.298	571
944.685	609
945.072	580
945.48	586.2
945.867	580.4
946.276	573
946.663	596.8
947.051	593.4
947.46	590.6
947.848	583.8
948.257	578.6
948.645	571.4
949.033	579
949.443	581.4
949.831	623.6
950.22	568.4
950.63	591.6
951.018	598.2
951.407	585.8
951.796	577.8
952.207	585.2
952.596	590.6
952.985	572
953.375	621.4
953.786	574.8
954.176	566.4
954.566	590.4
954.956	572.8
955.367	571.6
955.758	598.6
956.148	573
956.539	588
956.929	570
957.341	569.2
957.732	571.2
958.123	591.2
958.515	571.6
958.906	583.6
959.297	576.8
959.689	576.2
960.102	565.4
960.494	588
960.886	586
961.278	573
961.67	601
962.062	615.4
962.455	579.8
962.847	568.4
963.24	571
963.633	575.6
964.026	563.8
964.419	585.6
964.812	583
965.206	576.8
965.599	583.6
965.993	581.2
966.386	565
966.78	588.2
967.174	589
967.569	571.2
967.963	575.6
968.357	570.2
968.752	573.2
969.146	576.4
969.541	569.6
969.936	561.6
970.331	573.4
970.705	572.6
971.1	568.4
971.496	579.4
971.892	566.2
972.287	565.8
972.683	574.8
973.079	576
973.454	601.2
973.85	579.2
974.247	589.2
974.643	603.4
975.04	582.8
975.415	574.6
975.812	576.4
976.209	584.4
976.607	575.2
976.982	583.6
977.38	593.8
977.778	586
978.175	580.4
978.552	575.4
978.95	582.4
979.348	585.8
979.725	627
980.123	565.6
980.522	575.6
980.899	571.4
981.298	576.6
981.697	571.4
982.075	573.4
982.474	569.6
982.852	576.2
983.251	580
983.651	577.6
984.029	572.6
984.429	576.6
984.808	562.2
985.208	581.4
985.609	567
985.987	558.4
986.388	573
986.768	584.4
987.168	578.6
987.548	589.4
987.949	584.8
988.329	584
988.731	566.4
989.111	571.4
989.491	568.6
989.893	573.6
990.273	587.8
990.676	577.8
991.057	568.4
991.459	577
991.84	572
992.221	573.6
992.624	597.8
993.006	577
993.388	584.4
993.791	588.4
994.173	589.2
994.576	606.4
994.959	561.8
995.341	576
995.724	570.4
996.128	576.6
996.511	578.2
996.894	565
997.298	573.8
997.681	577.2
998.065	571
998.448	568.8
998.854	583
999.237	563.6
999.621	587.2
1000.01	582.4
1000.39	579.8
1000.8	570.6
1001.18	583
1001.56	584.6
1001.95	576.4
1002.33	589
1002.72	568.4
1003.13	581
1003.51	582.2
1003.9	579.6
1004.28	593
1004.67	568.8
1005.06	574.2
1005.44	604
1005.83	563.6
1006.21	573.2
1006.6	576.6
1006.99	584
1007.37	584.6
1007.76	572.8
1060.12	566.6
1060.51	572.2
1060.89	582.8
1061.28	586.6
1061.67	585.4
1062.06	584.8
1062.45	582.2
1062.83	566
1063.22	584.8
1063.61	626.2
1064	579.6
1064.39	572
1064.78	575.8
1065.14	580
1065.53	572.2
1065.92	572.2
1066.31	572.6
1066.7	589.4
1067.09	589
1067.46	585.6
1067.85	578.2
1068.24	577.4
1068.63	584.8
1069.02	566
1069.39	580
1069.78	571.2
1070.17	570.6
1070.57	569.2
1070.93	578.6
1071.33	568.2
1071.72	581.6
1072.11	569.8
1072.48	578.8
1072.87	573.2
1073.26	577.8
1073.64	569.6
1074.03	565.2
1074.4	575
1074.79	570.2
1075.19	577.2
1075.56	577.6
1075.95	574.8
1076.34	577
1076.72	576.4
1077.11	577.2
1077.48	586.2
1077.88	572.4
1078.25	573.2
1078.64	587.2
1079.02	590.8
1079.41	576
1079.78	573.2
1080.18	576.8
1080.55	640.6
1080.95	570.6
1081.32	570.2
1081.72	584.8
1082.09	574.8
1082.49	569.6
1082.86	575.4
1083.24	566.6
1083.63	572.2
1084.01	584
1084.38	581.2
1084.78	572.2
1085.16	582
1085.55	585.2
1085.93	598.2
1086.31	572.8
1086.7	601.4
1087.08	574.8
1087.46	576.6
1087.83	569.8
1088.23	581.4
1088.61	574.2
1088.99	572.6
1089.36	573.6
1089.76	586.8
1090.14	575
1090.52	578.4
1090.9	576.6
1091.27	590.2
1091.67	598.2
1092.05	574
1092.43	575.6
1092.81	581.6
1093.19	585.4
1093.57	575.8
1093.95	578.6
1094.35	581.4
1094.73	583.6
1095.11	566
1095.49	577
1095.87	581.8
1096.25	586.4
1096.63	579.4
1097.01	570.8
1097.39	576.4
1097.77	574.6
1098.15	572
1098.53	559.4
1098.91	569.2
1099.29	568.8
1099.68	596.8
1100.06	578.4
1100.44	575
1100.82	576.8
1101.18	577.6
1101.56	572.4
1101.95	575.2
1102.33	579.8
1102.71	569.4
1103.1	569.2
1103.48	563.6
1103.86	570.4
1104.22	575.8
1104.61	579
1104.99	572.6
1105.38	564.8
1105.76	569
1106.12	572
1106.51	599.6
1106.89	575.2
1107.26	575
1107.64	589.6
1108.03	577.2
1108.41	566.2
1108.78	580.8
1109.16	575.6
1109.55	576.6
1109.91	562.4
1110.3	553.8
1110.69	575.8
1111.05	565.2
1111.44	572.8
1111.8	577
1112.19	580.2
1112.58	571.2
1112.94	566.6
1113.33	573.4
1113.7	561.6
1114.09	561
1114.45	569.8
1114.84	572.2
1115.21	589.2
1115.6	569.8
1115.96	587.4
1116.35	576.4
1116.72	571.6
1117.11	584.6
1117.48	573.6
1117.85	587
1118.24	591.2
1118.6	584.2
1118.99	562.4
1119.36	582
1119.73	575
1120.12	571.6
1120.49	565.2
1120.86	574
1121.25	570.8
1121.62	556
1121.99	570
1122.38	577.6
1122.76	581
1123.13	575.8
1123.5	579.4
1123.89	586.4
1124.26	556.6
1124.63	575.2
1125	579.4
1125.4	570.2
1125.77	568
1126.14	564
1126.51	577
1126.88	572
1127.26	563.4
1127.63	563
1128.02	573.8
1128.4	569.8
1128.77	569
1129.14	572.2
1129.52	579
1129.89	576.2
1130.26	566.6
1130.64	563.4
1131.01	571.6
