#lambda/nm	C1
208.295	511
208.67	465.4
209.045	429.6
209.419	436.4
209.794	622.2
210.169	597.6
210.544	729.2
210.919	622.6
211.295	605.6
211.67	616
212.045	611.8
212.421	612.2
212.796	657
213.172	608.8
213.547	616.8
213.923	615.2
214.299	599.2
214.675	621.4
215.051	617.2
215.427	620.8
215.803	631
216.179	607.6
216.555	608.2
216.932	622.2
217.308	621
217.684	610.8
218.061	609.2
218.438	618.8
218.814	608.6
219.191	620.8
219.568	605.6
219.945	614.4
220.322	617.6
220.699	617.6
221.076	616.4
221.453	618.6
221.83	606.8
222.208	609.4
222.585	609.6
222.962	612.8
223.34	627.6
223.717	622.2
224.095	616.8
224.473	623
224.851	605.8
225.229	603.6
225.607	627.8
225.985	605
226.363	622.6
226.741	619.2
227.119	614.4
227.497	630.8
227.876	603.6
228.254	624.8
228.633	619.2
229.011	623.4
229.39	611.4
229.769	616.4
230.148	622.2
230.527	633.2
230.905	619
231.284	616.8
231.664	620
232.043	632.2
232.422	630.6
232.801	611.8
233.181	625
233.56	624.6
233.94	631.6
234.319	606.4
234.699	610.8
235.079	654.8
235.458	652.8
235.838	633.8
236.218	617.8
236.598	606
236.978	599.2
237.358	611.2
237.738	615.4
238.119	619.8
238.499	604.6
238.88	610.4
239.26	630.8
239.641	593.8
240.021	609.4
240.402	616.8
240.783	621.4
241.163	612.6
241.544	618.2
241.925	613.4
242.306	628.6
242.687	619.8
243.069	617.6
243.45	631.8
243.831	612
244.212	613.4
244.594	649.4
244.975	624.6
245.357	622.6
245.739	610.4
246.12	628.2
246.502	632.8
246.884	615
247.266	624.4
247.648	621.4
248.03	633.8
248.412	621.4
248.794	624.8
249.176	611.4
249.559	619.4
249.941	609.2
250.323	606.4
250.706	614.4
251.089	611.8
251.471	613.4
251.854	611.4
252.237	616.6
252.62	629.2
253.002	619
253.385	617
253.769	638.8
254.152	622.6
254.535	622.2
254.918	613.8
255.301	613.6
255.685	612
256.068	605.8
256.452	642.6
256.835	621.2
257.219	621.2
257.603	623.6
257.986	609.4
258.37	623
258.754	602.8
259.138	620.6
259.522	625.8
259.906	617.4
260.29	614.8
260.675	621.4
261.059	619
261.443	613
261.828	625.4
262.212	624.4
262.597	595.6
262.981	605.8
263.366	622
263.751	613.6
264.136	617
264.521	613.4
264.906	597
265.291	620.2
265.676	610.8
266.061	623.2
266.446	635.2
266.831	612
267.217	629.8
267.602	617
267.987	608.2
268.373	606.6
268.759	623.2
269.144	621.2
269.53	611.8
269.916	613.4
270.302	612.8
270.688	615.2
271.074	614.6
271.46	616.8
271.846	640.8
272.232	618.4
272.618	613
273.004	617.2
273.391	625.2
273.777	626.6
274.164	618.2
274.55	623.2
274.937	622.4
275.324	616.6
275.71	628.6
276.097	630.2
276.484	609.8
276.871	620.2
277.258	630.6
277.645	606.8
278.032	613.8
278.419	614.2
278.807	618.2
279.194	606.8
279.581	608
279.969	615.8
280.356	619.2
280.744	620.6
281.131	643.6
281.519	632.4
281.907	601.6
282.295	607.8
282.682	627.4
283.07	618
283.458	622.2
283.846	632.4
284.235	634.2
284.623	627.2
285.011	602.8
285.399	617.2
285.788	622.2
286.176	610
286.565	632.4
286.953	613.8
287.342	612.4
287.731	604.2
288.119	616.6
288.508	606.8
288.897	615.8
289.286	602.4
289.675	623
290.064	620.8
290.453	611.6
290.821	614.4
291.21	632.4
291.599	614.2
291.989	626
292.378	623.8
292.768	636
293.157	621.8
293.547	626.6
293.936	615.6
294.326	615.6
294.716	624.6
295.106	607.8
295.496	629.4
295.886	621.2
296.276	614.8
296.666	612.2
297.056	610.2
297.446	606.2
297.836	635.2
298.227	611
298.617	610
299.008	624.8
299.398	613.2
299.789	609.8
300.179	621.2
300.57	628.2
300.961	621.6
301.352	624
301.742	631
302.133	622.4
302.524	621
302.915	620.6
303.307	608.8
303.698	635.8
304.089	624.6
304.48	620.6
304.872	620.6
305.263	626
305.655	607.2
306.046	626.2
306.438	622
306.829	611.6
307.221	638.4
307.613	627
308.005	630
308.397	629.8
308.789	645.4
309.181	644.2
309.573	629.2
309.965	632
310.357	620.6
310.749	637.4
311.142	614
311.534	608.6
311.926	632.4
312.319	610.2
312.711	611.2
313.104	632
313.497	619.4
313.889	649.2
314.282	624
314.675	647.8
315.068	621.4
315.461	619.4
315.854	652.4
316.247	627
316.64	624.4
317.033	623.4
317.405	622.8
317.798	612.2
318.192	618.6
318.585	602.8
318.979	616.6
319.372	611.4
319.766	611.2
320.16	626.8
320.553	635.2
320.947	639
321.341	616.2
321.735	616.6
322.129	605.2
322.523	644
322.917	613.2
323.311	630.6
323.705	625.2
324.099	618.4
324.494	643
324.888	632.2
325.282	616
325.677	636.6
326.071	632.4
326.466	627.2
326.861	626.4
327.255	628.4
327.65	627.8
328.045	637.8
328.44	625.2
328.835	630.8
329.23	611
329.625	638
330.02	614.8
330.415	637.8
330.81	614.2
331.206	624.4
331.601	612.2
331.996	631
332.37	631.6
332.766	609
333.161	641.2
333.557	613.2
333.953	611.4
334.348	841
334.744	617.4
335.14	615.4
335.536	617.8
335.932	632.8
336.328	622
336.724	628.4
337.12	615.8
337.516	621.2
337.913	619.2
338.309	621.2
338.705	621
339.102	626.6
339.498	613.8
339.895	631.8
340.291	618.6
340.688	635
341.085	613.4
341.481	615.8
341.878	613.4
342.275	625.8
342.672	608.2
343.069	607.8
343.466	605.6
343.842	624.6
344.239	606.8
344.636	625.6
345.033	605.4
345.431	612
345.828	618.2
346.225	612.8
346.623	657.6
347.02	624.2
347.418	626.8
347.816	633.6
348.213	608
348.611	621
349.009	620.8
349.407	626.8
349.805	601.6
350.203	606.4
350.601	627.8
350.999	610
351.397	669.8
351.795	609.2
352.193	625.4
352.57	621
352.969	632.4
353.367	615.6
353.766	607.8
354.164	614.6
354.563	623.8
354.961	617
355.36	606.2
355.759	611.8
356.158	602.4
356.557	612.8
356.956	607.4
357.355	599.2
357.754	618.2
358.153	622
358.552	636
358.951	617.2
359.35	619.8
359.75	608
360.149	593.6
360.527	599.6
360.926	603.8
361.326	615.2
361.726	607.6
362.125	605.2
362.525	614.8
362.925	608.6
363.325	598.2
363.724	608.4
364.124	603.2
364.524	605
364.924	608.4
365.324	617.2
365.725	597.8
366.125	613.6
366.525	610.2
366.904	597
367.304	592.4
367.705	631.2
368.105	613.8
368.506	613.6
368.906	614.4
369.307	608
369.708	615.2
370.108	600.2
370.509	622.8
370.91	612
371.311	614
371.712	611.6
372.113	617
372.514	597.6
372.894	614.2
373.295	604.4
373.696	620.2
374.097	614
374.499	639.4
374.9	618.8
375.301	602.2
375.703	620.4
376.105	604.2
376.506	610.2
376.908	622.4
377.309	616.4
377.711	610.2
378.113	602.6
378.493	613.8
378.895	599.8
379.297	618
379.699	593.6
380.102	607.4
380.504	605.4
380.906	606.6
381.308	640
381.71	611.6
382.113	628.2
382.515	609.2
382.918	608.2
383.299	610.6
383.701	612.2
384.104	619.8
384.507	594.4
384.909	608.4
385.312	602.2
385.715	598.8
386.118	608.6
386.521	594
386.924	619.4
387.327	603.6
387.709	592.6
388.112	601
388.515	606.6
388.918	603.4
389.322	621.6
389.725	613.6
390.129	629.6
390.532	617.6
390.936	608.6
391.339	596
391.743	613
392.125	600.8
392.529	618.6
392.933	623
393.337	602.8
393.74	608.2
394.144	603.6
394.548	593.4
394.953	604
395.357	605.8
395.761	602.4
396.144	613.4
396.548	604.6
396.952	611.6
397.357	612.4
397.761	603.4
398.166	602
398.57	610.6
398.975	601.8
399.379	614.6
399.763	657.4
400.168	615.6
400.572	610.8
400.977	611.2
401.382	631
401.787	615.8
402.192	627.4
402.597	628
403.002	597.2
403.386	624.6
403.791	627.2
404.197	604.4
404.602	618
405.007	612
405.413	609.4
405.818	610.6
406.224	607
406.608	606.2
407.014	598.6
407.42	621.6
407.825	601.4
408.231	617.6
408.637	612.8
409.043	627.8
409.449	596.2
409.834	599.2
410.24	615.6
410.646	615.8
411.052	618.2
411.458	615.4
411.865	612.4
412.271	618.2
412.677	610.4
413.062	615.4
413.469	607.2
413.875	631.8
414.282	621.6
414.689	611
415.095	611.8
415.502	605.2
415.888	609.8
416.294	598.6
416.701	641.4
417.108	599
417.515	620
417.923	611.6
418.33	627.6
418.715	616.6
419.123	613.2
419.53	606.6
419.937	613.6
420.345	622.6
420.752	613
421.16	621.4
421.546	608.2
421.953	618.6
422.361	599.4
422.769	611.6
423.177	608.2
423.585	631.2
423.992	635.4
424.379	622.2
424.787	623.6
425.195	639.2
425.603	610
426.011	627.6
426.419	625.2
426.806	610
427.214	610.6
427.623	626.6
428.031	628.6
428.44	619.8
428.848	626.6
429.235	636.2
429.644	627.4
430.053	625.6
430.461	639
430.87	664
431.279	650
431.666	640.4
432.075	662
432.484	658.2
432.893	660.8
433.302	689
433.711	712.2
434.099	680
434.508	682.2
434.918	698.8
435.327	719.6
435.737	720.6
436.125	731.2
436.534	746
436.944	752.2
437.353	767.4
437.763	790.2
438.173	777
438.561	807.2
438.971	778
439.381	810.8
439.791	812
440.201	813.6
440.589	836.4
440.999	854.8
441.409	857.6
441.819	844.6
442.23	868.2
442.619	874.4
443.029	864.4
443.439	884.4
443.85	890.4
444.26	902
444.649	910
445.06	895.8
445.471	890.6
445.881	913.6
446.292	936
446.682	944.2
447.092	905
447.503	979.6
447.914	937.2
448.325	945.2
448.715	946.8
449.126	940.8
449.537	947.8
449.948	954
450.338	956.2
450.75	957
451.161	960.8
451.572	970.2
451.984	954.8
452.374	936.2
452.786	962.4
453.197	967.6
453.609	959.8
453.999	957.2
454.411	948
454.823	975
455.235	974
455.647	966.4
456.037	982.4
456.449	954
456.862	966.8
457.274	967
457.665	960.8
458.077	973
458.489	999.8
458.902	970.4
459.293	970.2
459.705	962.6
460.118	970.6
460.53	979.8
460.921	974.2
461.334	979.2
461.747	971.2
462.16	998.2
462.551	991
462.964	990
463.377	957.4
463.79	975.8
464.182	986.6
464.595	972
465.008	968.6
465.421	979.4
465.813	979.8
466.226	982.2
466.64	973.2
467.053	1039.2
467.445	1002
467.859	999.6
468.272	975.6
468.686	980.4
469.078	979.8
469.492	967.2
469.906	977.2
470.298	979.2
470.712	963.2
471.126	1015.4
471.54	956.8
471.933	960.2
472.347	972.2
472.761	957.2
473.175	964.8
473.568	969.4
473.982	955.8
474.397	969
474.79	955.4
475.204	978
475.619	951
476.033	959
476.426	956.8
476.841	948.6
477.256	978.8
477.649	954.2
478.064	947.8
478.479	936.4
478.872	941
479.287	937.6
479.702	945.4
480.118	937.8
480.511	929.8
480.927	947.8
481.342	940.2
481.736	936
482.151	935.4
482.566	941.2
482.96	938
483.376	950.6
483.792	915.2
484.186	936.6
484.602	917.2
485.017	932
485.412	922.6
485.827	928.2
486.243	914
486.638	936.8
487.054	904.2
487.47	940.4
487.865	910.2
488.281	905
488.697	890
489.092	898.6
489.508	887.4
489.925	906
490.32	890.8
490.736	887.4
491.153	891.4
491.548	898.6
491.964	909
492.381	871.8
492.776	893.8
493.193	879.2
493.61	890
494.006	885.6
494.422	879
494.84	871.4
495.235	884.8
495.652	868
496.069	864.8
496.465	866.4
496.883	857.4
497.3	884.8
497.696	857.8
498.113	871
498.509	854.2
498.927	837.2
499.344	846.2
499.741	842.4
500.158	838.8
500.576	858
500.973	849.6
501.39	838
501.787	827.6
502.205	842.8
502.623	822
503.02	819.4
503.438	827.8
503.856	830.4
504.253	827
504.671	821.8
505.068	821
505.486	814.4
505.905	836.8
506.302	822.4
506.72	817.6
507.118	793
507.536	806.6
507.955	800.4
508.352	791.6
508.771	799.2
509.169	798.4
509.587	788.6
510.006	790.6
510.404	780.8
510.823	785
511.221	783.4
511.64	786.2
512.038	796.6
512.457	788
512.877	782.4
513.275	775
513.694	773.8
514.092	775
514.512	781
514.91	781.4
515.33	771.6
515.749	766.4
516.148	766
516.568	760.8
516.966	760
517.386	754.4
517.785	756.6
518.205	751.2
518.603	749
519.024	744.6
519.444	752.8
519.843	756.2
520.263	760
520.662	753
521.082	743.8
521.481	735.6
521.902	742.2
522.301	750.6
522.722	736.8
523.121	738.6
523.542	732.6
523.963	733.6
524.362	735.6
524.783	733.2
525.183	737
525.604	730.2
526.003	711
526.425	725.2
526.824	732.6
527.246	729.4
527.646	734
528.067	714.4
528.467	724.6
528.888	717.2
529.289	716.6
529.71	707.6
530.11	710.8
530.532	706.8
530.932	712.6
531.354	696.8
531.755	742.2
532.176	719.4
532.577	708.8
532.999	710.6
533.4	696.8
533.822	713.8
534.223	713.8
534.645	703.4
535.046	701.8
535.468	703
535.869	710
536.292	700.2
536.693	731.6
537.115	702
537.516	686.6
537.939	686.2
538.34	709
538.742	703.8
539.165	689.2
539.566	688.6
539.989	684.4
540.391	684
540.814	685.4
541.216	684.2
541.639	686.6
542.041	697.8
542.464	681.4
542.866	670.8
543.268	672.8
543.691	684.2
544.093	694.6
544.517	702.8
544.919	670
545.343	697.4
545.745	674.8
546.147	677.8
546.571	678.6
546.974	661.4
547.398	675.2
547.8	687.2
548.224	663
548.627	665.8
549.03	675.4
549.454	662.4
549.857	663.2
550.281	653.6
550.684	665.8
551.087	677.4
551.512	675.4
551.915	659.4
552.34	661.4
552.743	660.2
553.146	656.4
553.571	655.4
553.975	672.8
554.399	645.8
554.803	698
555.207	652.6
555.632	645.8
556.036	649.4
556.461	643.4
556.865	655.4
557.268	658
557.694	643.6
558.098	652.8
558.502	649
558.927	642.8
559.332	655.6
559.736	640.4
560.162	648.4
560.566	643.8
560.992	650.8
561.396	650.2
561.801	640.4
562.227	647.8
562.631	637.4
563.036	643.6
563.462	652.6
563.867	644.2
564.272	624.8
564.698	642.6
565.103	631.4
565.508	660.8
565.935	639.6
566.34	642.2
566.745	650
567.172	631.2
567.577	664.4
567.982	656
568.409	638.2
568.815	627
569.22	638.4
569.626	642
570.053	621.2
570.459	636.8
570.865	640.8
571.292	636.8
571.698	636.2
572.104	616
572.531	625.4
572.937	634.6
573.343	629.4
573.75	637.2
574.177	634.2
574.583	637
574.99	616.2
575.396	636
575.824	626.6
576.231	645.6
576.637	622.2
577.065	645.8
577.472	624.4
577.879	636.8
578.286	638.4
578.714	628
579.121	618
579.528	629.2
579.935	634.2
580.364	627.8
580.771	613.8
581.178	630.2
581.585	635
582.014	624.4
582.421	623.4
582.829	613.6
583.236	630
583.644	613.8
584.073	618
584.481	628.6
584.889	618.8
585.296	620.2
585.726	624.4
586.134	608.8
586.542	610.6
586.95	637
587.358	615.2
587.787	617.8
588.196	621.2
588.604	608.6
589.012	614.4
589.421	614.8
589.851	605.6
590.259	615.6
590.668	613.6
591.076	650
591.485	605.4
591.894	614.8
592.324	629.4
592.733	629.6
593.142	598.2
593.551	603.8
593.96	613.2
594.369	600.8
594.8	606.4
595.209	613
595.618	597.8
596.028	603.4
596.437	598.6
596.847	612
597.256	618
597.687	612.2
598.097	620
598.507	601.4
598.917	614
599.327	621.4
599.736	615.8
600.146	609.6
600.556	611.2
600.988	615.4
601.398	602.6
601.808	620.6
602.219	591.8
602.629	607
603.039	603.8
603.45	633.2
603.86	607.8
604.271	616.2
604.703	604.8
605.114	604.4
605.525	604.6
605.935	599.6
606.346	618.2
606.757	607.6
607.168	607.4
607.579	596.2
607.99	608.4
608.402	608
608.813	603.6
609.224	606.6
609.636	604.2
610.047	594.6
610.48	604.2
610.892	609.6
611.303	616.6
611.715	596.2
612.127	588
612.539	600.8
612.95	604.4
613.362	592.2
613.774	596.8
614.186	595.8
614.599	602.4
615.011	603.2
615.423	601
615.835	603.6
616.248	591.8
616.66	607.2
617.073	592.4
617.485	597
617.898	610
618.311	605.8
618.723	600.6
619.136	637.4
619.549	617.6
619.962	626.4
620.375	605.8
620.788	607.8
621.201	602
621.614	609
622.028	604.2
622.441	601.6
622.854	614.6
623.268	592.4
623.681	600.2
624.095	602.4
624.509	603.8
624.922	605.4
625.336	579.6
625.728	595.8
626.142	610.2
626.556	617
626.97	602.6
627.384	599.4
627.799	595.6
628.213	613.4
628.627	596.8
629.041	590.6
629.456	590
629.87	605
630.285	610.6
630.699	602.2
631.093	596.6
631.507	599.4
631.922	603.8
632.337	619.2
632.752	597.8
633.167	600
633.582	599.6
633.997	593
634.412	590.6
634.806	601.2
635.221	591.6
635.637	607
636.052	586.8
636.468	603.6
636.883	623.8
637.299	593.8
637.715	583.4
638.109	597.8
638.525	587.4
638.941	603.6
639.357	606.4
639.773	605.8
640.189	591.4
640.584	605
641	592.2
641.416	587.4
641.832	599.2
642.249	592.2
642.665	592.2
643.06	602.2
643.477	606.8
643.894	578.8
644.31	594
644.727	598.2
645.123	585.8
645.54	595.2
645.957	593.8
646.374	609.8
646.77	602.4
647.187	626.6
647.604	600.6
648.021	589.6
648.439	591.2
648.835	603.4
649.252	594
649.67	596.6
650.088	587.4
650.484	595.8
650.902	600.4
651.32	594.8
651.738	587.6
652.134	595
652.552	607.6
652.971	604.2
653.389	582.2
653.786	602.6
654.204	615
654.622	583.8
655.019	594
655.438	599.6
655.857	598.4
656.275	597.4
656.673	579.6
657.091	591.8
657.51	589.8
657.908	596.6
658.327	609
658.746	577
659.144	595.6
659.563	606.8
659.982	599.6
660.38	584.8
660.8	595.8
661.219	601.2
661.617	589.8
662.037	589.4
662.457	603.8
662.855	584
663.275	622.2
663.695	588.6
664.094	586
664.514	600.2
664.934	580.4
665.333	591.2
665.753	592
666.152	591.2
666.572	587
666.993	601.4
667.392	587.4
667.812	588.8
668.212	584.6
668.632	600.8
669.053	597.2
669.453	596.8
669.874	588.6
670.273	596.2
670.694	588
671.116	608
671.515	600.2
671.937	588.4
672.337	595
672.758	592
673.158	601.6
673.58	584.2
673.98	600.2
674.402	602.8
674.824	591.8
675.224	591.2
675.646	589.4
676.047	589.2
676.469	588.2
676.869	599
677.292	601.6
677.693	592.4
678.115	586.6
678.516	596.4
678.939	597.6
679.34	595.6
679.762	609.2
680.164	599.4
680.586	588.2
680.988	589.4
681.411	619
681.812	581.8
682.236	579.6
682.637	586.6
683.061	584.2
683.462	588
683.864	582.6
684.288	604.8
684.69	580.4
685.114	606
685.516	596.8
685.94	583.6
686.342	605.2
686.766	587
687.168	588
687.571	607.4
687.995	599.4
688.398	575.8
688.822	590.4
689.225	604.6
689.628	602.2
690.052	585.2
690.456	591
690.88	595.2
691.284	575
691.687	598.6
692.112	581.6
692.515	587.8
692.919	593.6
693.344	595.2
693.747	593.6
694.173	585.2
694.577	600.4
694.98	586.2
695.406	584.8
695.81	603.8
696.214	600
696.64	600.2
697.044	591.6
697.448	601.2
697.874	590.8
698.279	594
698.684	581
699.11	592.8
699.514	591.6
699.919	587.4
700.324	579.4
700.75	589.6
701.156	579.4
701.561	595
701.987	594.8
702.393	592.2
702.798	591
703.203	585
703.63	584.2
704.036	577.4
704.442	586.8
704.847	584.4
705.274	581.2
705.68	596.2
706.086	595.4
706.492	577
706.92	586.6
707.326	599
707.732	586
708.139	585.4
708.545	586.6
708.973	586.4
709.38	586.6
709.786	574.2
710.193	601.4
710.6	584.6
711.028	579.6
711.435	592
711.842	595.4
712.249	583
712.656	584.4
713.064	600.4
713.492	588.2
713.9	584.4
714.307	594.2
714.715	581
715.123	580
715.53	587.8
715.938	601.6
716.367	592.2
716.775	586.4
717.184	582
717.592	588.6
718	600.4
718.408	614.8
718.816	627.8
719.225	589.2
719.633	583.8
720.042	580.6
720.472	588
720.881	609.4
721.29	581
721.699	579.6
722.108	593.4
722.517	586.2
722.926	582.8
723.335	588.6
723.744	574
724.154	600.4
724.563	596.2
724.973	590.4
725.382	595.2
725.792	581.8
726.202	576.6
726.612	606.2
727.022	590
727.432	588.2
779.813	585
780.223	636.4
780.634	584.4
781.044	580.8
781.454	591.4
781.865	604.4
782.276	581.2
782.686	600.8
783.097	589.8
783.508	589.6
783.919	582.8
784.33	596.2
784.741	600.4
785.152	585.6
785.563	573
785.974	581
786.386	601.6
786.776	588
787.188	582.4
787.599	579.4
788.011	592.8
788.423	590.2
788.835	577.4
789.247	574.2
789.659	587.4
790.071	582.8
790.483	635.4
790.874	582.8
791.286	588.8
791.699	575.4
792.111	591.8
792.524	588
792.937	588.6
793.349	577
793.741	577.6
794.154	584
794.567	609.6
794.98	590
795.393	576.8
795.785	599.4
796.198	582.4
796.612	590
797.026	576.2
797.439	565.6
797.831	583.2
798.245	579.8
798.659	588
799.073	585.6
799.487	571
799.88	579.6
800.294	582.4
800.708	585.4
801.123	590.8
801.516	604
801.93	574
802.345	567.8
802.76	588
803.153	599.8
803.568	591.2
803.983	587.8
804.377	580.6
804.792	574.8
805.207	564
805.601	589.4
806.016	615
806.432	583.4
806.826	617.8
807.242	604
807.658	587.8
808.052	580.2
808.468	583.8
808.884	574.2
809.279	589.2
809.695	593.2
810.111	605.6
810.506	592.6
810.922	598.2
811.339	579.2
811.734	594.8
812.151	585.8
812.546	577.4
812.963	578.4
813.38	584
813.776	584
814.193	603.2
814.589	579.2
815.006	576.6
815.402	583.2
815.82	577.4
816.237	579.6
816.633	583.6
817.051	576.8
817.448	582
817.866	585.8
818.262	605.6
818.68	584.2
819.077	579.8
819.495	588.2
819.892	617.2
820.311	576.6
820.708	589.6
821.127	583.2
821.524	592.2
821.943	590.8
822.34	596.8
822.759	585.8
823.157	590.8
823.576	598.4
823.974	591.6
824.393	612
824.791	578.8
825.189	584.6
825.609	576.8
826.007	589.8
826.427	582.4
826.826	582.8
827.246	583.8
827.644	571.6
828.043	593.8
828.463	580
828.862	589.8
829.261	577.6
829.682	574.6
830.081	588
830.502	586.4
830.901	593
831.301	595
831.722	576
832.121	577.8
832.521	584
832.943	574.2
833.342	584.4
833.742	574
834.164	585
834.564	574
834.965	580.8
835.386	584.2
835.787	576.6
836.188	580
836.588	583.8
837.01	578.2
837.411	569.4
837.812	594.2
838.213	586
838.636	593.4
839.037	651.6
839.438	585.6
839.84	581.4
840.263	594.6
840.664	592.8
841.066	589
841.468	586
841.891	580
842.293	591.8
842.695	586.8
843.098	589.6
843.5	576.6
843.902	587.2
844.326	590.6
844.729	584.4
845.131	590.4
845.534	580.4
845.937	597.4
846.34	606
846.764	572.8
847.167	582.2
847.571	579.6
847.974	583.8
848.377	581.2
848.781	618.6
849.184	586.8
849.588	577.4
849.992	569.8
850.396	580
850.821	597.4
851.225	581.6
851.63	578.8
852.034	588
852.438	582
852.843	656
853.247	570
853.652	577.2
854.057	595.6
854.462	584.6
854.867	589
855.272	615.4
855.677	581.6
856.082	570.6
856.487	573.4
856.893	585
857.298	579.6
857.704	575.8
858.11	593.4
858.516	589
858.922	581.4
859.328	591
859.734	592.4
860.14	591.8
860.525	592
860.931	570.4
861.338	581
861.745	591
862.151	593.8
862.558	587.8
862.965	576.8
863.372	578.4
863.779	575.8
864.186	605.2
864.572	585.2
864.98	599.6
865.387	605
865.795	572.2
866.203	586.8
866.61	576.4
867.018	598.6
867.405	589.2
867.813	576.2
868.221	580.6
868.63	580.2
869.038	591.2
869.425	629
869.834	581.6
870.243	583.4
870.652	577.6
871.039	582.4
871.448	585.4
871.857	593.8
872.266	583.6
872.654	580.4
873.064	581.4
873.473	587.2
873.883	578.6
874.271	580.4
874.681	593
875.091	570.4
875.48	592.6
875.89	596.4
876.3	577.6
876.689	569.6
877.1	585
877.51	588.8
877.9	605.8
878.31	582.6
878.721	610.6
879.111	582.4
879.522	580.2
879.933	565.2
880.323	580.2
880.734	574
881.125	586.8
881.536	574
881.948	574.6
882.338	576.6
882.75	593
883.141	582.4
883.553	585.4
883.944	604.8
884.356	601
884.769	579.2
885.16	582.2
885.573	588.8
885.964	569.2
886.377	584.2
886.768	575.2
887.181	582.6
887.573	569.8
887.987	583
888.378	593.6
888.792	585.8
889.184	630.6
889.598	582.8
889.99	585.8
890.383	579.4
890.797	572
891.19	597.8
891.604	577.4
891.997	573
892.411	577.2
892.805	577.6
893.198	577
893.613	573.2
894.006	578.4
894.421	574.4
894.815	575.4
895.209	573.6
895.624	613
896.018	595.2
896.412	571.6
896.828	581.2
897.222	589
897.617	581.4
898.033	596
898.427	581.6
898.822	580.4
899.239	571.2
899.634	564.4
900.029	595.6
900.424	570.2
900.841	572.8
901.236	583
901.632	580.8
902.027	642.8
902.445	588.2
902.841	585
903.237	583
903.633	601.4
904.05	589.4
904.447	589.6
904.843	587.4
905.24	573.4
905.636	559
906.033	577.2
906.451	583.6
906.848	571.6
907.246	583.2
907.643	590.4
908.04	580.4
908.438	588.6
908.835	591.6
909.254	578.8
909.652	593
910.05	582.4
910.448	576.2
910.846	583.2
911.244	571
911.643	579.4
912.041	575
912.44	603
912.839	571.8
913.237	571.2
913.636	578.2
914.035	589.8
914.434	578.6
914.834	589.6
915.233	593.4
915.633	576.6
916.032	575.2
916.432	569.4
916.832	602.8
917.232	574.4
917.632	561.6
918.032	579.2
918.432	572.2
918.833	580.6
919.233	585.6
919.634	575.2
920.035	584
920.436	583.2
920.837	586.8
921.238	569.2
921.639	588.2
922.019	583
922.42	587
922.822	588.8
923.224	581.8
923.625	581.6
924.027	580.6
924.429	601.2
924.81	586
925.212	583.8
925.615	582
926.017	578
926.42	596
926.801	583
927.204	585.4
927.607	589
928.01	596.8
928.413	584.4
928.795	567.4
929.199	572
929.602	575.8
930.006	572.8
930.388	570.4
930.792	586
931.196	584.4
931.579	608
931.983	569.2
932.388	632
932.771	575.8
933.176	576.4
933.58	581.6
933.964	587
934.369	574
934.774	582.4
935.158	575.8
935.563	585.6
935.947	579.2
936.353	585.6
936.759	581.8
937.143	572.2
937.549	579
937.934	602.4
938.34	599.8
938.746	577
939.131	580.6
939.538	576.6
939.923	580.8
940.33	577.4
940.716	583.8
941.123	580.6
941.508	589.8
941.916	592.2
942.302	576.6
942.709	575
943.096	574.8
943.503	582.6
943.89	573.6
944.298	570.6
944.685	603.6
945.072	571.6
945.48	589
945.867	571
946.276	565.2
946.663	599.4
947.051	591.6
947.46	582.4
947.848	574.8
948.257	578.6
948.645	579
949.033	573.6
949.443	569
949.831	612
950.22	579.2
950.63	590.4
951.018	603.8
951.407	588.8
951.796	567.8
952.207	592
952.596	585.8
952.985	573.4
953.375	618
953.786	575.6
954.176	567
954.566	583.8
954.956	568.8
955.367	581.2
955.758	601.2
956.148	564.4
956.539	588.2
956.929	580
957.341	561.4
957.732	572.6
958.123	581.6
958.515	568.6
958.906	586.6
959.297	575.4
959.689	568.6
960.102	565.2
960.494	581.4
960.886	582
961.278	571.2
961.67	603.2
962.062	613
962.455	577
962.847	566.4
963.24	581
963.633	578.8
964.026	567.8
964.419	578.2
964.812	584.2
965.206	568.6
965.599	587.6
965.993	574.6
966.386	571
966.78	595.6
967.174	584
967.569	573
967.963	572.6
968.357	576.8
968.752	567.4
969.146	581.2
969.541	573.4
969.936	572.6
970.331	578.6
970.705	577.6
971.1	573.8
971.496	586.2
971.892	569.8
972.287	572.8
972.683	577.4
973.079	584.6
973.454	588
973.85	574.4
974.247	583
974.643	603.4
975.04	580
975.415	578
975.812	572.2
976.209	585.2
976.607	574.6
976.982	596.4
977.38	592
977.778	573.8
978.175	572.4
978.552	585.8
978.95	585.8
979.348	585.4
979.725	622.6
980.123	575.6
980.522	581.8
980.899	572.4
981.298	567
981.697	585.6
982.075	579.4
982.474	578
982.852	580.4
983.251	575.6
983.651	576.2
984.029	584.4
984.429	576.6
984.808	573.4
985.208	569.4
985.609	560.2
985.987	568
986.388	576.6
986.768	581.8
987.168	567.4
987.548	586.2
987.949	588.8
988.329	582
988.731	557
989.111	576.2
989.491	576.6
989.893	577.2
990.273	583.8
990.676	566.8
991.057	564
991.459	576.8
991.84	574
992.221	569.6
992.624	593.4
993.006	585.4
993.388	584.6
993.791	584.2
994.173	590.2
994.576	605.6
994.959	568.2
995.341	571.6
995.724	565.4
996.128	568
996.511	569.4
996.894	572.8
997.298	580.4
997.681	579
998.065	579.6
998.448	568
998.854	582
999.237	570.4
999.621	575.6
1000.01	591.8
1000.39	576
1000.8	576.2
1001.18	581.4
1001.56	580.6
1001.95	584.4
1002.33	582.4
1002.72	579.6
1003.13	577.4
1003.51	576.4
1003.9	573.6
1004.28	584.2
1004.67	564.8
1005.06	576.4
1005.44	605
1005.83	567.8
1006.21	573.2
1006.6	582.8
1006.99	586.6
1007.37	583.4
1007.76	578.6
1060.12	577.6
1060.51	566.8
1060.89	576.2
1061.28	583
1061.67	582.6
1062.06	584.4
1062.45	582.8
1062.83	575.6
1063.22	579
1063.61	617.6
1064	581.8
1064.39	583.4
1064.78	577
1065.14	589.6
1065.53	577.4
1065.92	587
1066.31	568
1066.7	585.2
1067.09	592.6
1067.46	579.6
1067.85	576.2
1068.24	567.6
1068.63	580.8
1069.02	573.2
1069.39	575.4
1069.78	573.2
1070.17	575
1070.57	568
1070.93	577.4
1071.33	575.6
1071.72	585.8
1072.11	575.4
1072.48	580.2
1072.87	580.4
1073.26	570.2
1073.64	575.8
1074.03	566.2
1074.4	569
1074.79	572.8
1075.19	579.2
1075.56	581.2
1075.95	580.8
1076.34	575.2
1076.72	574
1077.11	586.2
1077.48	587.2
1077.88	583.4
1078.25	572
1078.64	589
1079.02	582.6
1079.41	592.8
1079.78	573.8
1080.18	565
1080.55	635.8
1080.95	575.2
1081.32	571.8
1081.72	576.2
1082.09	581.2
1082.49	568
1082.86	576
1083.24	571.8
1083.63	561.4
1084.01	571.6
1084.38	581
1084.78	563.2
1085.16	579.4
1085.55	583.4
1085.93	578.2
1086.31	561.6
1086.7	596.8
1087.08	571.8
1087.46	565.6
1087.83	567.8
1088.23	582
1088.61	563
1088.99	575.8
1089.36	574.6
1089.76	575.4
1090.14	563.6
1090.52	570
1090.9	574
1091.27	587.4
1091.67	593.8
1092.05	578.4
1092.43	572.4
1092.81	571.8
1093.19	571.6
1093.57	575
1093.95	573.6
1094.35	588.4
1094.73	587.8
1095.11	571.6
1095.49	580.2
1095.87	576.6
1096.25	593.2
1096.63	581.8
1097.01	565.4
1097.39	575.4
1097.77	574.6
1098.15	572
1098.53	572.2
1098.91	569.4
1099.29	572.6
1099.68	598.2
1100.06	580.6
1100.44	574
1100.82	574.8
1101.18	584.4
1101.56	573.2
1101.95	570.4
1102.33	573.4
1102.71	571.8
1103.1	574.4
1103.48	562.4
1103.86	566.6
1104.22	577.8
1104.61	563.6
1104.99	570
1105.38	564.8
1105.76	575.6
1106.12	572.4
1106.51	597.6
1106.89	592.8
1107.26	577.2
1107.64	579.8
1108.03	575.4
1108.41	574.6
1108.78	576
1109.16	575.6
1109.55	576.8
1109.91	567.2
1110.3	560.8
1110.69	577
1111.05	574.4
1111.44	580.8
1111.8	578
1112.19	573.6
1112.58	574.2
1112.94	571
1113.33	573.8
1113.7	578.8
1114.09	574.2
1114.45	571.4
1114.84	572.2
1115.21	586.8
1115.6	567.6
1115.96	577.4
1116.35	571.4
1116.72	568.2
1117.11	584.8
1117.48	573
1117.85	581
1118.24	583.6
1118.6	574.8
1118.99	568.8
1119.36	578
1119.73	574.2
1120.12	572.4
1120.49	566.6
1120.86	579
1121.25	577
1121.62	564.2
1121.99	568.2
1122.38	587.6
1122.76	575
1123.13	565.8
1123.5	584.6
1123.89	587.8
1124.26	566.2
1124.63	570
1125	574.8
1125.4	562
1125.77	571.6
1126.14	557.8
1126.51	575.6
1126.88	577.8
1127.26	564.4
1127.63	556
1128.02	566.6
1128.4	565
1128.77	568.8
1129.14	574.2
1129.52	571.4
1129.89	568
1130.26	570.2
1130.64	559.6
1131.01	562.6
