#lambda/nm	C1
208.295	513.4
208.67	467.8
209.045	428.4
209.419	436.6
209.794	605.2
210.169	600
210.544	735.2
210.919	617.6
211.295	607.6
211.67	613.4
212.045	614.6
212.421	614
212.796	648.2
213.172	616.8
213.547	609.6
213.923	606.6
214.299	609.4
214.675	628.2
215.051	616.6
215.427	625.6
215.803	636.2
216.179	619.8
216.555	608.2
216.932	625.6
217.308	612.4
217.684	615.2
218.061	625.4
218.438	616.4
218.814	602.6
219.191	619.8
219.568	606.4
219.945	609.6
220.322	616
220.699	616.2
221.076	618.4
221.453	622.4
221.83	611.6
222.208	615
222.585	611.2
222.962	618.6
223.34	614
223.717	613.4
224.095	622.6
224.473	620.2
224.851	614.4
225.229	602
225.607	631.8
225.985	606.8
226.363	608.2
226.741	616.2
227.119	605.8
227.497	632.6
227.876	597.6
228.254	620.4
228.633	613.4
229.011	622
229.39	628.8
229.769	615.8
230.148	622.6
230.527	631.8
230.905	614.2
231.284	630
231.664	614.2
232.043	623.8
232.422	620.4
232.801	608
233.181	622.4
233.56	605.2
233.94	613.2
234.319	604.2
234.699	608
235.079	660.8
235.458	649
235.838	632.8
236.218	610.8
236.598	597.2
236.978	613.8
237.358	611
237.738	617.2
238.119	618.6
238.499	606.6
238.88	613.8
239.26	627
239.641	612.6
240.021	610
240.402	615.8
240.783	609
241.163	613.6
241.544	617.6
241.925	613.4
242.306	628.6
242.687	625.4
243.069	623.6
243.45	619.4
243.831	612.8
244.212	622.6
244.594	660
244.975	621.6
245.357	616.2
245.739	608.4
246.12	618
246.502	627.6
246.884	608.2
247.266	610.8
247.648	617.8
248.03	640.8
248.412	621
248.794	620
249.176	605.2
249.559	623.8
249.941	607.4
250.323	603.2
250.706	607.4
251.089	623.2
251.471	622.2
251.854	610.4
252.237	616.8
252.62	619.8
253.002	616.6
253.385	613.6
253.769	631
254.152	614.4
254.535	624.2
254.918	604.2
255.301	614
255.685	613.4
256.068	604.8
256.452	640
256.835	621.2
257.219	615.6
257.603	630.4
257.986	605.8
258.37	617.8
258.754	611
259.138	628.6
259.522	628.4
259.906	607
260.29	616.2
260.675	613
261.059	619.8
261.443	607.4
261.828	627.4
262.212	620.4
262.597	607.2
262.981	615.6
263.366	621.8
263.751	618
264.136	618.8
264.521	620.4
264.906	612
265.291	632
265.676	614.4
266.061	626
266.446	636.4
266.831	623.6
267.217	642.4
267.602	617.4
267.987	612.8
268.373	610.8
268.759	637.8
269.144	619
269.53	611.6
269.916	614
270.302	612.8
270.688	618
271.074	614
271.46	620.6
271.846	642.2
272.232	615.6
272.618	613.2
273.004	618.8
273.391	632.6
273.777	620
274.164	617.4
274.55	631
274.937	618
275.324	619.8
275.71	623.2
276.097	628.2
276.484	610
276.871	625.6
277.258	625.2
277.645	604.6
278.032	608.6
278.419	604.6
278.807	613.2
279.194	605.2
279.581	617.4
279.969	624.4
280.356	620.4
280.744	617.6
281.131	643.8
281.519	622.4
281.907	609.6
282.295	602.8
282.682	629.8
283.07	616
283.458	630.4
283.846	626.4
284.235	625.8
284.623	630.4
285.011	612
285.399	618
285.788	611.8
286.176	604.4
286.565	629
286.953	606.6
287.342	605.6
287.731	606.2
288.119	604.2
288.508	615
288.897	609.8
289.286	609.4
289.675	617
290.064	622.4
290.453	611.2
290.821	612.2
291.21	631
291.599	606
291.989	610.2
292.378	615.4
292.768	630
293.157	613
293.547	619.4
293.936	604.8
294.326	612.4
294.716	616.6
295.106	616.2
295.496	622.6
295.886	623.6
296.276	617.6
296.666	610.6
297.056	613.2
297.446	608.4
297.836	631.6
298.227	617.8
298.617	625.4
299.008	626.4
299.398	613.6
299.789	606.6
300.179	629
300.57	623.4
300.961	603.6
301.352	610.2
301.742	621.6
302.133	621
302.524	621
302.915	617.2
303.307	613.6
303.698	625.6
304.089	619.8
304.48	616.8
304.872	619
305.263	618.4
305.655	617.4
306.046	620.2
306.438	616.8
306.829	616.8
307.221	636.2
307.613	623.2
308.005	627.6
308.397	636.8
308.789	637.2
309.181	649.8
309.573	636
309.965	635.4
310.357	620
310.749	624.8
311.142	611.6
311.534	616.2
311.926	612.8
312.319	610.6
312.711	608.8
313.104	630.6
313.497	623.2
313.889	658.6
314.282	632.4
314.675	640
315.068	616.8
315.461	631
315.854	648.2
316.247	624.4
316.64	608.2
317.033	620.8
317.405	623.2
317.798	617
318.192	623.2
318.585	608.4
318.979	623.4
319.372	613
319.766	614.6
320.16	628
320.553	636.6
320.947	636.4
321.341	615.4
321.735	622.4
322.129	607
322.523	642.8
322.917	607.8
323.311	627.2
323.705	622.8
324.099	627.4
324.494	624.2
324.888	634.4
325.282	613.2
325.677	631.8
326.071	621.8
326.466	629.6
326.861	620
327.255	635.8
327.65	631.8
328.045	635
328.44	621
328.835	615.2
329.23	616
329.625	640.8
330.02	613
330.415	635.6
330.81	618.8
331.206	623.2
331.601	620.8
331.996	624.4
332.37	645.2
332.766	610.6
333.161	642.8
333.557	616.6
333.953	621.4
334.348	947.8
334.744	614.4
335.14	609.2
335.536	609.6
335.932	634
336.328	614.8
336.724	622.4
337.12	631.6
337.516	627.2
337.913	617
338.309	628.6
338.705	619.4
339.102	631
339.498	614
339.895	631
340.291	611
340.688	621
341.085	611.8
341.481	619
341.878	609.4
342.275	640.2
342.672	613.8
343.069	611.4
343.466	599.8
343.842	629.4
344.239	608
344.636	615.8
345.033	608.4
345.431	603.2
345.828	617.2
346.225	609.2
346.623	655.8
347.02	623
347.418	625
347.816	628.6
348.213	611.4
348.611	623.6
349.009	606.6
349.407	633
349.805	603.6
350.203	604
350.601	626
350.999	611
351.397	674.4
351.795	621.8
352.193	629.6
352.57	627.4
352.969	619.8
353.367	600.6
353.766	612.4
354.164	612.8
354.563	624
354.961	615.2
355.36	607.6
355.759	611
356.158	601
356.557	606.4
356.956	602.2
357.355	602.4
357.754	614.8
358.153	618.8
358.552	638.6
358.951	611
359.35	628.4
359.75	608.6
360.149	600.2
360.527	598.4
360.926	607.6
361.326	611.8
361.726	615
362.125	608.6
362.525	626
362.925	614.6
363.325	617.8
363.724	615.8
364.124	608.6
364.524	602.6
364.924	619
365.324	624.4
365.725	587.4
366.125	625.6
366.525	609.4
366.904	600.8
367.304	598
367.705	631.2
368.105	622.8
368.506	612.4
368.906	611.6
369.307	607.6
369.708	615.4
370.108	599.2
370.509	618
370.91	606.4
371.311	605.2
371.712	610.4
372.113	605.2
372.514	597
372.894	611.2
373.295	601.8
373.696	614.6
374.097	617
374.499	638
374.9	612.6
375.301	598.4
375.703	610.4
376.105	596.6
376.506	619
376.908	618.6
377.309	611
377.711	598.4
378.113	601.2
378.493	608.4
378.895	613.6
379.297	623
379.699	596
380.102	613.2
380.504	607.6
380.906	611.2
381.308	630.2
381.71	611.8
382.113	619.2
382.515	603.2
382.918	613
383.299	611.4
383.701	616.2
384.104	606.6
384.507	587.2
384.909	599.4
385.312	591.6
385.715	608.6
386.118	600
386.521	589.8
386.924	612.6
387.327	593.2
387.709	594.4
388.112	584.8
388.515	603.4
388.918	594.2
389.322	605
389.725	588.2
390.129	620.8
390.532	607.2
390.936	600.6
391.339	599.4
391.743	603.4
392.125	599.6
392.529	623.6
392.933	621.6
393.337	608.8
393.74	601.6
394.144	600.4
394.548	607.8
394.953	606
395.357	613.6
395.761	602.4
396.144	611.6
396.548	609.4
396.952	609.6
397.357	620.8
397.761	602.6
398.166	608.4
398.57	613.4
398.975	595.8
399.379	610.8
399.763	654.8
400.168	613
400.572	609.6
400.977	604.6
401.382	636.6
401.787	613
402.192	623.8
402.597	620.2
403.002	596.8
403.386	619.2
403.791	625.4
404.197	600.6
404.602	599.8
405.007	608
405.413	605.8
405.818	613.4
406.224	602.4
406.608	613
407.014	605
407.42	618.6
407.825	607.8
408.231	621.6
408.637	621
409.043	631.8
409.449	608.8
409.834	604.6
410.24	614.8
410.646	624.6
411.052	617.6
411.458	618.8
411.865	613
412.271	617.8
412.677	607.4
413.062	619.2
413.469	596.8
413.875	631.6
414.282	620.6
414.689	611.6
415.095	614.8
415.502	607
415.888	614.8
416.294	599
416.701	647.4
417.108	610.4
417.515	624.4
417.923	611.6
418.33	630.6
418.715	623.8
419.123	608
419.53	607.2
419.937	602.6
420.345	623.4
420.752	604.8
421.16	625.4
421.546	602
421.953	615.4
422.361	602.8
422.769	611.8
423.177	603.6
423.585	644.6
423.992	623.4
424.379	619
424.787	622.4
425.195	638.4
425.603	615.6
426.011	625.6
426.419	624.4
426.806	613.8
427.214	611.4
427.623	615.2
428.031	625.2
428.44	613.4
428.848	625
429.235	625.8
429.644	611
430.053	610.2
430.461	627.6
430.87	644.8
431.279	617.2
431.666	602.6
432.075	619.6
432.484	620.4
432.893	614.2
433.302	638.6
433.711	653.2
434.099	626.6
434.508	623.2
434.918	611.6
435.327	631.4
435.737	627.2
436.125	629
436.534	631.2
436.944	645.6
437.353	643.4
437.763	657.4
438.173	647.2
438.561	662.8
438.971	638
439.381	654.6
439.791	657.6
440.201	644.6
440.589	670
440.999	681.8
441.409	676.6
441.819	671.2
442.23	698
442.619	686.6
443.029	685.4
443.439	695.2
443.85	711
444.26	720.8
444.649	713
445.06	712.6
445.471	699.4
445.881	712
446.292	738.8
446.682	744.2
447.092	707
447.503	771.6
447.914	718.6
448.325	728.8
448.715	727.4
449.126	730
449.537	732.6
449.948	739.4
450.338	725.4
450.75	749.8
451.161	740.6
451.572	758.8
451.984	742.4
452.374	729.8
452.786	748.2
453.197	756.6
453.609	762.4
453.999	741
454.411	744.6
454.823	765.8
455.235	765.4
455.647	749.4
456.037	773.8
456.449	741.2
456.862	765.6
457.274	763
457.665	759.8
458.077	765
458.489	783.2
458.902	745.6
459.293	766.8
459.705	769.6
460.118	769
460.53	776.4
460.921	774.4
461.334	777.4
461.747	781.6
462.16	792.8
462.551	787.8
462.964	783
463.377	773.8
463.79	784.2
464.182	790.2
464.595	765.2
465.008	778.2
465.421	789.6
465.813	774.4
466.226	772.8
466.64	776.4
467.053	825.2
467.445	797.4
467.859	798.8
468.272	797.6
468.686	792.6
469.078	788.4
469.492	780.4
469.906	790.6
470.298	798.2
470.712	792
471.126	831.8
471.54	774.4
471.933	786.2
472.347	799.2
472.761	786
473.175	790.4
473.568	783.4
473.982	785.2
474.397	790.6
474.79	798.8
475.204	798
475.619	792
476.033	802.2
476.426	798.4
476.841	792.8
477.256	815.2
477.649	783.6
478.064	784
478.479	780.6
478.872	775.6
479.287	770.4
479.702	787
480.118	779
480.511	787.6
480.927	783
481.342	764.4
481.736	779.8
482.151	778
482.566	792.6
482.96	780.6
483.376	789
483.792	769.2
484.186	779.4
484.602	780.2
485.017	776
485.412	782.6
485.827	779
486.243	766.6
486.638	800.8
487.054	786.2
487.47	789.4
487.865	768
488.281	774.8
488.697	766.6
489.092	767
489.508	757
489.925	774.4
490.32	752.8
490.736	781.6
491.153	776.6
491.548	774.6
491.964	773.2
492.381	755.8
492.776	768
493.193	769.4
493.61	769.2
494.006	764.6
494.422	773.2
494.84	763.8
495.235	764.2
495.652	762.2
496.069	755.8
496.465	752.2
496.883	750.8
497.3	781
497.696	753.6
498.113	757
498.509	746
498.927	747.8
499.344	744.4
499.741	747.4
500.158	756.6
500.576	754
500.973	758
501.39	718.6
501.787	736
502.205	740.6
502.623	734.8
503.02	724.4
503.438	735.8
503.856	734.2
504.253	736.2
504.671	738.8
505.068	723.8
505.486	729.4
505.905	747.6
506.302	729
506.72	737.4
507.118	718
507.536	720
507.955	727
508.352	727.2
508.771	729.2
509.169	727.6
509.587	714.8
510.006	715
510.404	712.2
510.823	715.6
511.221	715.4
511.64	716.4
512.038	728
512.457	720
512.877	704.4
513.275	710.8
513.694	711
514.092	709.2
514.512	713.8
514.91	720.6
515.33	712
515.749	706.8
516.148	707.8
516.568	709.2
516.966	701.6
517.386	697.4
517.785	695.2
518.205	699.4
518.603	688
519.024	684.4
519.444	699
519.843	701.8
520.263	706.6
520.662	693.4
521.082	685.6
521.481	691.8
521.902	689.6
522.301	699.6
522.722	689.6
523.121	683
523.542	680.2
523.963	685
524.362	685.2
524.783	680.8
525.183	681.6
525.604	672.8
526.003	674.2
526.425	668.8
526.824	688
527.246	688
527.646	685.8
528.067	677
528.467	682.8
528.888	685.4
529.289	679
529.71	667.6
530.11	667.2
530.532	669.6
530.932	671.2
531.354	661.2
531.755	703.6
532.176	670.8
532.577	664.4
532.999	672.2
533.4	655.8
533.822	682
534.223	673.8
534.645	665.6
535.046	665.4
535.468	662.2
535.869	671.4
536.292	656.6
536.693	693.6
537.115	658.6
537.516	658.2
537.939	660.2
538.34	666.6
538.742	673.2
539.165	652.4
539.566	662.2
539.989	650.6
540.391	659.8
540.814	661
541.216	654.4
541.639	667
542.041	665.8
542.464	649.4
542.866	647.8
543.268	641.4
543.691	666.8
544.093	653
544.517	680.6
544.919	650
545.343	665.2
545.745	647.4
546.147	646.4
546.571	639.2
546.974	638.2
547.398	648
547.8	659.4
548.224	646.2
548.627	643.6
549.03	652.6
549.454	633.4
549.857	631.6
550.281	637.4
550.684	633.8
551.087	660
551.512	645.2
551.915	648
552.34	646.6
552.743	630.6
553.146	647.8
553.571	641.2
553.975	661.2
554.399	634.4
554.803	686.8
555.207	633
555.632	634.2
556.036	643.4
556.461	633.4
556.865	639.2
557.268	627.2
557.694	639.6
558.098	644
558.502	637.6
558.927	632.6
559.332	637.6
559.736	631.4
560.162	640.6
560.566	635.8
560.992	642
561.396	627.6
561.801	628.2
562.227	627.6
562.631	623.2
563.036	621.4
563.462	636.4
563.867	620.2
564.272	620.8
564.698	629
565.103	612.8
565.508	648
565.935	627
566.34	625.8
566.745	627.4
567.172	623
567.577	637.6
567.982	625
568.409	623.8
568.815	621.6
569.22	621.2
569.626	631.8
570.053	611.2
570.459	622.4
570.865	631.2
571.292	620
571.698	625.2
572.104	607.8
572.531	616.4
572.937	634
573.343	627.8
573.75	616.2
574.177	614
574.583	621.8
574.99	621.4
575.396	623.4
575.824	617.4
576.231	632
576.637	617
577.065	635.6
577.472	610.4
577.879	615.6
578.286	627
578.714	611.8
579.121	607.4
579.528	610.8
579.935	611.6
580.364	604.8
580.771	601.8
581.178	611.8
581.585	614
582.014	606.8
582.421	599.6
582.829	608
583.236	621.6
583.644	599.4
584.073	602.8
584.481	603.2
584.889	601.2
585.296	607
585.726	607.8
586.134	597.8
586.542	605.8
586.95	629
587.358	603.6
587.787	611.8
588.196	623.4
588.604	601.8
589.012	607.4
589.421	602.4
589.851	604.2
590.259	607
590.668	605.2
591.076	647.8
591.485	599.8
591.894	599
592.324	620.6
592.733	617
593.142	596.8
593.551	599.4
593.96	641.8
594.369	599.6
594.8	601.2
595.209	610.8
595.618	596.2
596.028	595.6
596.437	601.6
596.847	611.4
597.256	617.2
597.687	610.4
598.097	602.2
598.507	595.4
598.917	606.6
599.327	609.2
599.736	596.6
600.146	612.8
600.556	602
600.988	618
601.398	604.8
601.808	622.6
602.219	594.6
602.629	598.8
603.039	603.8
603.45	622.4
603.86	597.4
604.271	621.2
604.703	606.4
605.114	601.6
605.525	604
605.935	609.6
606.346	623.6
606.757	603.8
607.168	593.8
607.579	596.8
607.99	613.2
608.402	595
608.813	616
609.224	594.2
609.636	589.4
610.047	601
610.48	600
610.892	603
611.303	607.4
611.715	606
612.127	593.8
612.539	599.8
612.95	595
613.362	589.6
613.774	581
614.186	587.4
614.599	594.6
615.011	606
615.423	599.8
615.835	594.8
616.248	589.4
616.66	604.2
617.073	585.6
617.485	593.2
617.898	607
618.311	602.4
618.723	601
619.136	627.4
619.549	612.6
619.962	618.4
620.375	600.6
620.788	605.4
621.201	600.2
621.614	608
622.028	595.8
622.441	603.4
622.854	609.4
623.268	592
623.681	603
624.095	612
624.509	615.8
624.922	609.2
625.336	593.2
625.728	591
626.142	607
626.556	617.8
626.97	604.2
627.384	597.4
627.799	600.2
628.213	619
628.627	601.8
629.041	595.4
629.456	598.8
629.87	605.6
630.285	602.2
630.699	612
631.093	595.8
631.507	598.4
631.922	607.8
632.337	612
632.752	591.8
633.167	603.4
633.582	600.2
633.997	600.4
634.412	593
634.806	601.4
635.221	588.4
635.637	605.2
636.052	587
636.468	600.8
636.883	609
637.299	605
637.715	589.6
638.109	606.8
638.525	586.4
638.941	610.2
639.357	605.6
639.773	612.6
640.189	599.4
640.584	599.8
641	597.8
641.416	589.8
641.832	595
642.249	594.2
642.665	592.2
643.06	613
643.477	600.8
643.894	585.6
644.31	593
644.727	594
645.123	594.2
645.54	589.6
645.957	595.8
646.374	608.4
646.77	590.2
647.187	622.8
647.604	597
648.021	584.4
648.439	590.4
648.835	604.4
649.252	599.8
649.67	592.4
650.088	597
650.484	598.8
650.902	610
651.32	608.6
651.738	590.2
652.134	600.8
652.552	610.4
652.971	600.6
653.389	595.4
653.786	610.4
654.204	614.8
654.622	586
655.019	603
655.438	596
655.857	597.4
656.275	605
656.673	585.8
657.091	610.8
657.51	586.6
657.908	608.4
658.327	606.4
658.746	587.2
659.144	593
659.563	604.8
659.982	600
660.38	587
660.8	592
661.219	602.6
661.617	596.6
662.037	590.2
662.457	606.2
662.855	584.4
663.275	624.4
663.695	593.2
664.094	591.2
664.514	597.6
664.934	591.2
665.333	600.8
665.753	591.4
666.152	586
666.572	583.8
666.993	601.2
667.392	594.4
667.812	597
668.212	597.2
668.632	604.8
669.053	589.4
669.453	600.4
669.874	592.4
670.273	591
670.694	587
671.116	598.4
671.515	598
671.937	585.4
672.337	586.2
672.758	590.6
673.158	594.6
673.58	584.4
673.98	597
674.402	593.2
674.824	593.8
675.224	581.2
675.646	572.2
676.047	586.4
676.469	587
676.869	589.6
677.292	586
677.693	580.4
678.115	586.8
678.516	590.6
678.939	584
679.34	587.2
679.762	599.4
680.164	600.4
680.586	576
680.988	590.2
681.411	606.4
681.812	593.4
682.236	577.6
682.637	583.8
683.061	581.4
683.462	583.6
683.864	580.6
684.288	596
684.69	583.8
685.114	600
685.516	596.4
685.94	581.2
686.342	593.4
686.766	582
687.168	582.8
687.571	610
687.995	585.4
688.398	581.8
688.822	588.8
689.225	594.6
689.628	601.2
690.052	592
690.456	600.4
690.88	590.6
691.284	582.6
691.687	588
692.112	573
692.515	582.6
692.919	595.8
693.344	593
693.747	590.2
694.173	585.4
694.577	601.2
694.98	585.4
695.406	588.8
695.81	591.2
696.214	595.4
696.64	596.8
697.044	598.4
697.448	598
697.874	598.4
698.279	578
698.684	575.6
699.11	583.6
699.514	578.6
699.919	589.2
700.324	583.6
700.75	587.8
701.156	595.2
701.561	601
701.987	591.8
702.393	599.8
702.798	598.2
703.203	594.4
703.63	588.4
704.036	592.4
704.442	590.6
704.847	589.4
705.274	594.8
705.68	588.6
706.086	593.4
706.492	584.8
706.92	586.4
707.326	596.4
707.732	585.6
708.139	576.2
708.545	576.6
708.973	583.4
709.38	591.6
709.786	577.4
710.193	603.2
710.6	588.8
711.028	579.2
711.435	572.6
711.842	590
712.249	576.2
712.656	584.2
713.064	597.4
713.492	575.2
713.9	577.8
714.307	595.6
714.715	586.6
715.123	591.8
715.53	595.2
715.938	601.8
716.367	586.2
716.775	586.4
717.184	581
717.592	585
718	599.6
718.408	627.8
718.816	632
719.225	588
719.633	593.6
720.042	578.2
720.472	581.4
720.881	603.4
721.29	592.8
721.699	575.6
722.108	593.8
722.517	593
722.926	585
723.335	603.4
723.744	599.4
724.154	587.2
724.563	594
724.973	596
725.382	587.6
725.792	584.6
726.202	580.2
726.612	603.8
727.022	586.6
727.432	593.4
779.813	588.8
780.223	633.6
780.634	583
781.044	585.2
781.454	587
781.865	603.8
782.276	579
782.686	601.2
783.097	590.8
783.508	582.4
783.919	586.8
784.33	597.8
784.741	599
785.152	580.4
785.563	572.6
785.974	580
786.386	599.8
786.776	580.2
787.188	578.8
787.599	575.4
788.011	587.2
788.423	599.6
788.835	580.2
789.247	580.2
789.659	576.8
790.071	586
790.483	615.2
790.874	576.8
791.286	601.2
791.699	579.4
792.111	583
792.524	592.6
792.937	578.2
793.349	576
793.741	582.2
794.154	580.2
794.567	601.8
794.98	578.4
795.393	571
795.785	599
796.198	581
796.612	590.2
797.026	585.4
797.439	567.8
797.831	584.2
798.245	581.2
798.659	576.4
799.073	584.8
799.487	578.8
799.88	586.2
800.294	595.2
800.708	591.6
801.123	585.4
801.516	598.8
801.93	573.6
802.345	576
802.76	582
803.153	609.8
803.568	592.2
803.983	598.4
804.377	588.2
804.792	574
805.207	572.4
805.601	586.6
806.016	629.4
806.432	581.4
806.826	614.6
807.242	596.8
807.658	586.6
808.052	577.8
808.468	576.4
808.884	583.8
809.279	592.8
809.695	591.8
810.111	601
810.506	581.8
810.922	600.4
811.339	587.4
811.734	590
812.151	581.4
812.546	583.8
812.963	588
813.38	597.6
813.776	590.8
814.193	603.2
814.589	579.8
815.006	583
815.402	586
815.82	577.2
816.237	580.8
816.633	584.6
817.051	580.2
817.448	586.8
817.866	566.8
818.262	606.8
818.68	570.6
819.077	581.2
819.495	592.6
819.892	621.4
820.311	578
820.708	588.4
821.127	578.2
821.524	599.2
821.943	586
822.34	599.6
822.759	585.4
823.157	576.6
823.576	591.4
823.974	586.8
824.393	597.6
824.791	573.8
825.189	575.6
825.609	568.6
826.007	577.8
826.427	574
826.826	575.2
827.246	578.2
827.644	570.2
828.043	585.6
828.463	579.8
828.862	586.4
829.261	587.8
829.682	569.2
830.081	586.6
830.502	573.6
830.901	593
831.301	599.4
831.722	577
832.121	576.6
832.521	575.8
832.943	586.8
833.342	584.6
833.742	577.8
834.164	585.8
834.564	570.8
834.965	581.4
835.386	577
835.787	587.4
836.188	580.2
836.588	579.8
837.01	587.4
837.411	575
837.812	594.8
838.213	598.6
838.636	580.8
839.037	653
839.438	584.4
839.84	584.2
840.263	580.2
840.664	584.4
841.066	579.4
841.468	587.2
841.891	586
842.293	595.8
842.695	588.8
843.098	592.8
843.5	579.4
843.902	587.4
844.326	585
844.729	586.8
845.131	593.2
845.534	589.4
845.937	597.6
846.34	596
846.764	575
847.167	591.8
847.571	581.2
847.974	592.4
848.377	586.6
848.781	631
849.184	593.6
849.588	582.2
849.992	580.4
850.396	579.4
850.821	602.2
851.225	582
851.63	579.8
852.034	598.6
852.438	588.8
852.843	665.4
853.247	578.8
853.652	582
854.057	597.8
854.462	591.8
854.867	582.4
855.272	615.6
855.677	591.4
856.082	572
856.487	574.8
856.893	585
857.298	579.8
857.704	582.2
858.11	583.6
858.516	587.8
858.922	588.4
859.328	580.2
859.734	587
860.14	593.6
860.525	586
860.931	566.8
861.338	570
861.745	585.6
862.151	594
862.558	591.4
862.965	572.4
863.372	582.6
863.779	577.6
864.186	611.2
864.572	587.8
864.98	600.4
865.387	616
865.795	574.8
866.203	584.6
866.61	567.4
867.018	594.2
867.405	584.6
867.813	580.6
868.221	582.2
868.63	586
869.038	593
869.425	620
869.834	577.2
870.243	582.4
870.652	580.6
871.039	574.4
871.448	579.6
871.857	585.4
872.266	582.8
872.654	585.8
873.064	581.2
873.473	589
873.883	586
874.271	583.6
874.681	588.8
875.091	567.4
875.48	590.4
875.89	604.6
876.3	579.8
876.689	575
877.1	588.4
877.51	579
877.9	599.6
878.31	579.2
878.721	616
879.111	582.2
879.522	581.2
879.933	570.8
880.323	574.8
880.734	569.6
881.125	584.6
881.536	577.6
881.948	569.4
882.338	580.4
882.75	590.4
883.141	583.4
883.553	583.2
883.944	615.4
884.356	598
884.769	574.4
885.16	580.2
885.573	579.8
885.964	569.6
886.377	586.4
886.768	570.4
887.181	588.2
887.573	582.8
887.987	590.4
888.378	593.4
888.792	587
889.184	624.6
889.598	570.8
889.99	590.2
890.383	583
890.797	581.6
891.19	589
891.604	576.2
891.997	574.6
892.411	569.4
892.805	577.6
893.198	578.8
893.613	571.8
894.006	589.2
894.421	572.2
894.815	573.8
895.209	574
895.624	620
896.018	608.2
896.412	576.6
896.828	585.2
897.222	583
897.617	580.6
898.033	604.4
898.427	584.2
898.822	590.2
899.239	574.6
899.634	571.8
900.029	597.8
900.424	572
900.841	572.8
901.236	589.2
901.632	577.8
902.027	642.8
902.445	590
902.841	575.6
903.237	580.8
903.633	583.6
904.05	580.8
904.447	577.6
904.843	587.8
905.24	582
905.636	570.2
906.033	571
906.451	588.6
906.848	572.8
907.246	572.8
907.643	583
908.04	584.6
908.438	594.6
908.835	589
909.254	582.6
909.652	582.2
910.05	584.2
910.448	577.6
910.846	582.2
911.244	570.6
911.643	581.8
912.041	579.8
912.44	610.2
912.839	579
913.237	576.4
913.636	571.6
914.035	586.8
914.434	574.4
914.834	589.6
915.233	575.4
915.633	573.4
916.032	567.6
916.432	571.4
916.832	586.6
917.232	567.2
917.632	566.4
918.032	578
918.432	572.8
918.833	567.6
919.233	565.4
919.634	565
920.035	579.4
920.436	576.2
920.837	579.4
921.238	577
921.639	574
922.019	577.4
922.42	566.2
922.822	582.4
923.224	578
923.625	572.6
924.027	579
924.429	606.2
924.81	583.2
925.212	583.4
925.615	583.4
926.017	581.2
926.42	583.4
926.801	582.6
927.204	583.6
927.607	589.4
928.01	589.8
928.413	580.8
928.795	570.6
929.199	578.8
929.602	572
930.006	574.2
930.388	569.2
930.792	586.4
931.196	578.2
931.579	609.8
931.983	564.8
932.388	621.8
932.771	575.2
933.176	571.2
933.58	581.4
933.964	595.6
934.369	571.2
934.774	581.2
935.158	583
935.563	586.6
935.947	579.4
936.353	582.2
936.759	581.8
937.143	591
937.549	578.4
937.934	597.4
938.34	599.8
938.746	577.8
939.131	580.8
939.538	572.6
939.923	586.4
940.33	582.8
940.716	587.4
941.123	576.8
941.508	588.6
941.916	595.8
942.302	586.4
942.709	569.6
943.096	569.6
943.503	583
943.89	575.8
944.298	572.8
944.685	606
945.072	574.8
945.48	587.8
945.867	566.2
946.276	569.8
946.663	600
947.051	594.4
947.46	591.4
947.848	587.4
948.257	579.2
948.645	587
949.033	575
949.443	571.8
949.831	624.8
950.22	565.2
950.63	582.6
951.018	601.4
951.407	569.8
951.796	572.6
952.207	583.6
952.596	587.4
952.985	564.8
953.375	618.8
953.786	585.4
954.176	567.4
954.566	577.6
954.956	567.6
955.367	581.6
955.758	596.8
956.148	572.8
956.539	586.8
956.929	567.8
957.341	568.6
957.732	572.4
958.123	585.2
958.515	569.4
958.906	588
959.297	577.2
959.689	575.2
960.102	572.4
960.494	575.2
960.886	580.2
961.278	576.4
961.67	601.2
962.062	616.6
962.455	574.2
962.847	572
963.24	567.8
963.633	582
964.026	574
964.419	583.8
964.812	594.2
965.206	577.4
965.599	581.8
965.993	579.2
966.386	576
966.78	595.6
967.174	577.6
967.569	576.4
967.963	574.6
968.357	572.6
968.752	576.4
969.146	579.4
969.541	563.8
969.936	573.4
970.331	580.2
970.705	577.4
971.1	577.6
971.496	583
971.892	571.6
972.287	574
972.683	579.6
973.079	581.6
973.454	588.4
973.85	577
974.247	587
974.643	601.2
975.04	582
975.415	578
975.812	566.6
976.209	576.4
976.607	570.6
976.982	589
977.38	595.8
977.778	583.6
978.175	576
978.552	582.2
978.95	575.4
979.348	586.8
979.725	629.6
980.123	580
980.522	571
980.899	576.4
981.298	583.4
981.697	579.8
982.075	579.6
982.474	571.6
982.852	583
983.251	576.2
983.651	565.2
984.029	576.8
984.429	578.6
984.808	566.4
985.208	569
985.609	569.6
985.987	560
986.388	566.4
986.768	581.6
987.168	575.8
987.548	577.2
987.949	593.8
988.329	576.2
988.731	561.4
989.111	580.8
989.491	573.8
989.893	578.8
990.273	590.6
990.676	573.6
991.057	572.2
991.459	568.2
991.84	577.2
992.221	561.4
992.624	587.6
993.006	576.8
993.388	580.4
993.791	588.2
994.173	586
994.576	599.6
994.959	563.6
995.341	571.6
995.724	573.2
996.128	573
996.511	577.8
996.894	564
997.298	572.6
997.681	582.6
998.065	578.6
998.448	561
998.854	587.4
999.237	570.2
999.621	582
1000.01	581
1000.39	582.2
1000.8	569.4
1001.18	587.2
1001.56	589.2
1001.95	577.8
1002.33	586.2
1002.72	566.6
1003.13	574.6
1003.51	584.2
1003.9	574.4
1004.28	598.8
1004.67	575.6
1005.06	580
1005.44	612
1005.83	566.6
1006.21	574.4
1006.6	573.4
1006.99	585.2
1007.37	585.8
1007.76	572.8
1060.12	567
1060.51	567
1060.89	573.6
1061.28	577.2
1061.67	579
1062.06	578.8
1062.45	581.6
1062.83	568.4
1063.22	574.4
1063.61	611.6
1064	572
1064.39	562.2
1064.78	569.4
1065.14	575.4
1065.53	577.6
1065.92	572
1066.31	568.6
1066.7	575.6
1067.09	586.8
1067.46	585
1067.85	567.2
1068.24	577
1068.63	576
1069.02	573
1069.39	573.8
1069.78	566.6
1070.17	571.6
1070.57	569.2
1070.93	577.8
1071.33	570.4
1071.72	581.6
1072.11	574.4
1072.48	570.4
1072.87	575.2
1073.26	571.6
1073.64	578.8
1074.03	560.2
1074.4	570
1074.79	570.4
1075.19	574.2
1075.56	585.2
1075.95	579.2
1076.34	575.6
1076.72	578.6
1077.11	575.8
1077.48	590.6
1077.88	572.2
1078.25	570.4
1078.64	578.8
1079.02	586
1079.41	584
1079.78	573
1080.18	574.6
1080.55	638.8
1080.95	566.6
1081.32	568.2
1081.72	584.8
1082.09	579.2
1082.49	569.8
1082.86	573.4
1083.24	566.2
1083.63	564
1084.01	569.4
1084.38	577
1084.78	568
1085.16	584
1085.55	593.4
1085.93	598.2
1086.31	563.8
1086.7	597.4
1087.08	580.2
1087.46	576.4
1087.83	568.8
1088.23	585.6
1088.61	576
1088.99	574.6
1089.36	566.4
1089.76	570.6
1090.14	577.2
1090.52	574.4
1090.9	580.4
1091.27	586.8
1091.67	595
1092.05	576
1092.43	571.8
1092.81	571.4
1093.19	573.4
1093.57	571.2
1093.95	577.6
1094.35	584.4
1094.73	574.6
1095.11	566.8
1095.49	567.8
1095.87	580
1096.25	585
1096.63	574.6
1097.01	571.8
1097.39	578.8
1097.77	572.8
1098.15	578.8
1098.53	573.2
1098.91	577.4
1099.29	578.6
1099.68	598
1100.06	585.4
1100.44	577.4
1100.82	571.6
1101.18	581
1101.56	573.4
1101.95	575.4
1102.33	575.2
1102.71	580.2
1103.1	576
1103.48	573
1103.86	564.4
1104.22	577.8
1104.61	570.4
1104.99	567.2
1105.38	569.2
1105.76	578.6
1106.12	567.8
1106.51	611.8
1106.89	587
1107.26	577.4
1107.64	577.2
1108.03	575
1108.41	578.4
1108.78	571.6
1109.16	589.4
1109.55	582.6
1109.91	570.8
1110.3	564.8
1110.69	585.6
1111.05	570
1111.44	575.2
1111.8	576.8
1112.19	577.4
1112.58	578
1112.94	571.2
1113.33	573
1113.7	575
1114.09	568.4
1114.45	562.2
1114.84	571.2
1115.21	577.6
1115.6	573
1115.96	572.4
1116.35	580.4
1116.72	575.6
1117.11	588.4
1117.48	569
1117.85	575.4
1118.24	584.8
1118.6	576.8
1118.99	561.6
1119.36	579.6
1119.73	575.2
1120.12	568.6
1120.49	571.2
1120.86	580
1121.25	575.4
1121.62	560.6
1121.99	571
1122.38	586.6
1122.76	570.8
1123.13	569.2
1123.5	578.6
1123.89	583.6
1124.26	561.8
1124.63	569
1125	572
1125.4	575.2
1125.77	571
1126.14	563.6
1126.51	569.8
1126.88	581.6
1127.26	573.4
1127.63	569.2
1128.02	567.6
1128.4	567.4
1128.77	568.6
1129.14	570.2
1129.52	568
1129.89	581.6
1130.26	568.8
1130.64	560.2
1131.01	566.2
