#lambda/nm	C1
208.295	509.4
208.67	466.8
209.045	425.2
209.419	428.8
209.794	618.4
210.169	600
210.544	717.2
210.919	618.4
211.295	610.8
211.67	613.6
212.045	607.8
212.421	608.2
212.796	642.4
213.172	609
213.547	611.8
213.923	611.2
214.299	609.6
214.675	622.6
215.051	612.6
215.427	625.4
215.803	626.2
216.179	618
216.555	612.2
216.932	616.2
217.308	613.6
217.684	616.2
218.061	620.8
218.438	614.8
218.814	598.2
219.191	622.8
219.568	611
219.945	603.4
220.322	618.6
220.699	605.2
221.076	622.4
221.453	616.4
221.83	603.4
222.208	612.2
222.585	607.2
222.962	615
223.34	615.2
223.717	615.8
224.095	606
224.473	615.8
224.851	610
225.229	602.2
225.607	624.4
225.985	602.8
226.363	621.8
226.741	617.8
227.119	616.8
227.497	617.8
227.876	596.8
228.254	624.2
228.633	625.2
229.011	624
229.39	619.6
229.769	618
230.148	631.2
230.527	637
230.905	618.8
231.284	618.4
231.664	606.8
232.043	629.4
232.422	621
232.801	603.2
233.181	625.8
233.56	611.4
233.94	615.8
234.319	598.2
234.699	605.8
235.079	656.4
235.458	648.6
235.838	629.4
236.218	604.8
236.598	601
236.978	601.8
237.358	603.4
237.738	606.8
238.119	619
238.499	596.6
238.88	613.8
239.26	631
239.641	596.6
240.021	611.8
240.402	608.6
240.783	607.8
241.163	616.4
241.544	616
241.925	615.2
242.306	622.8
242.687	613.6
243.069	610.8
243.45	624.2
243.831	612.4
244.212	608.6
244.594	648
244.975	618.6
245.357	616.2
245.739	609.4
246.12	618
246.502	636.8
246.884	612
247.266	609.8
247.648	616
248.03	635.2
248.412	612.6
248.794	625.2
249.176	605.4
249.559	622.2
249.941	604.6
250.323	604.8
250.706	606.2
251.089	619
251.471	622.6
251.854	610.6
252.237	616.8
252.62	619.2
253.002	615.2
253.385	610
253.769	621.2
254.152	620.4
254.535	626.2
254.918	608.8
255.301	613.4
255.685	610.8
256.068	607
256.452	643.2
256.835	619.4
257.219	623.6
257.603	628.4
257.986	604
258.37	615.8
258.754	608
259.138	616
259.522	623.4
259.906	617.2
260.29	617.2
260.675	612.8
261.059	621.6
261.443	595.6
261.828	618.8
262.212	624.6
262.597	606.2
262.981	601.4
263.366	619
263.751	614
264.136	607.8
264.521	618
264.906	600.2
265.291	626.8
265.676	611.4
266.061	613.6
266.446	640.2
266.831	612.6
267.217	629.8
267.602	618
267.987	614.2
268.373	602.8
268.759	624.2
269.144	624.6
269.53	605.4
269.916	610.4
270.302	605.2
270.688	617.6
271.074	617.4
271.46	620.4
271.846	641
272.232	614.8
272.618	606.6
273.004	608.2
273.391	624.8
273.777	624.6
274.164	621.2
274.55	628.2
274.937	619.6
275.324	614.2
275.71	621.6
276.097	622.2
276.484	607.8
276.871	616.4
277.258	619.2
277.645	603.6
278.032	615.8
278.419	617.2
278.807	627
279.194	615.2
279.581	605.8
279.969	617.4
280.356	614.8
280.744	609.6
281.131	636.4
281.519	631
281.907	608.8
282.295	611.8
282.682	628
283.07	611.8
283.458	623.8
283.846	622.8
284.235	630
284.623	625
285.011	602.6
285.399	617
285.788	617.4
286.176	598.4
286.565	620.6
286.953	602.6
287.342	609.8
287.731	608.6
288.119	610
288.508	608.8
288.897	615.4
289.286	605.4
289.675	613
290.064	621.2
290.453	608.8
290.821	611.4
291.21	631.6
291.599	607.2
291.989	611.8
292.378	618.6
292.768	634.2
293.157	615.6
293.547	629.4
293.936	612.6
294.326	608
294.716	616.8
295.106	608.2
295.496	620
295.886	628.4
296.276	621.2
296.666	608.6
297.056	608.2
297.446	604.4
297.836	632.4
298.227	610.6
298.617	617.6
299.008	631.4
299.398	617.8
299.789	610.8
300.179	621.6
300.57	632.6
300.961	610.6
301.352	609.6
301.742	622.8
302.133	618.2
302.524	621.4
302.915	618.4
303.307	608.4
303.698	622.8
304.089	620.6
304.48	617.2
304.872	623.8
305.263	614.2
305.655	612
306.046	619.4
306.438	622.8
306.829	607.6
307.221	624.8
307.613	623.4
308.005	621.2
308.397	634
308.789	638.8
309.181	639.8
309.573	630
309.965	629.8
310.357	617.6
310.749	640
311.142	603.2
311.534	617.4
311.926	625.2
312.319	614.6
312.711	612.2
313.104	631.4
313.497	615.4
313.889	654.6
314.282	631.8
314.675	645.6
315.068	610.8
315.461	610.4
315.854	648
316.247	625.2
316.64	606.4
317.033	622
317.405	622
317.798	609.6
318.192	618.2
318.585	607.6
318.979	617.2
319.372	611.6
319.766	612.6
320.16	612.4
320.553	621.6
320.947	635.4
321.341	606.4
321.735	612.8
322.129	599.6
322.523	650.4
322.917	603.2
323.311	620.6
323.705	617.2
324.099	623.8
324.494	637
324.888	625
325.282	609
325.677	626.2
326.071	627.2
326.466	629.4
326.861	621.6
327.255	630.2
327.65	631.2
328.045	634.8
328.44	618.8
328.835	619.2
329.23	612.6
329.625	639.2
330.02	611.2
330.415	639.2
330.81	622.8
331.206	615.2
331.601	609.6
331.996	625.6
332.37	639.2
332.766	610.8
333.161	642.4
333.557	611.6
333.953	610.4
334.348	977.8
334.744	611.8
335.14	616
335.536	617
335.932	631.8
336.328	618
336.724	625.2
337.12	614.8
337.516	620.6
337.913	619.2
338.309	633.4
338.705	616.2
339.102	625.2
339.498	615
339.895	627.4
340.291	620
340.688	625.6
341.085	611.2
341.481	616
341.878	612.4
342.275	643.6
342.672	612
343.069	606.8
343.466	601.6
343.842	632.2
344.239	605.8
344.636	615.2
345.033	607.4
345.431	607.4
345.828	613.2
346.225	610.4
346.623	644
347.02	617.2
347.418	619.4
347.816	629.6
348.213	605
348.611	619.2
349.009	610.6
349.407	616.8
349.805	602.8
350.203	597.4
350.601	625
350.999	610.6
351.397	674
351.795	616.2
352.193	634.4
352.57	623.6
352.969	626.4
353.367	599.8
353.766	613.2
354.164	614.6
354.563	620.8
354.961	606.8
355.36	609
355.759	612
356.158	601.8
356.557	607.6
356.956	603.2
357.355	604.6
357.754	619.8
358.153	617.2
358.552	626.8
358.951	604.4
359.35	630.8
359.75	602.6
360.149	605.8
360.527	598.8
360.926	603.6
361.326	618.2
361.726	607.4
362.125	607.2
362.525	613.8
362.925	610.6
363.325	612.4
363.724	605.2
364.124	603.4
364.524	604.2
364.924	610.8
365.324	617.2
365.725	597.2
366.125	612.4
366.525	609.6
366.904	593.2
367.304	602
367.705	624.2
368.105	623.6
368.506	604.4
368.906	612.6
369.307	602.2
369.708	607.6
370.108	597.6
370.509	620
370.91	602.4
371.311	608.6
371.712	605.6
372.113	606
372.514	604.2
372.894	604.4
373.295	600
373.696	623.8
374.097	617
374.499	639
374.9	610.8
375.301	596.4
375.703	607.6
376.105	600.2
376.506	623.8
376.908	608.2
377.309	602.8
377.711	604
378.113	601.8
378.493	605.4
378.895	603.4
379.297	610.4
379.699	591.2
380.102	613.6
380.504	608.8
380.906	601.8
381.308	636.8
381.71	610.4
382.113	615.8
382.515	612.4
382.918	612.2
383.299	598.4
383.701	611
384.104	609.8
384.507	582.4
384.909	600.4
385.312	592.8
385.715	595.8
386.118	600.4
386.521	593.2
386.924	610.4
387.327	596
387.709	591.2
388.112	581.2
388.515	599.8
388.918	606.2
389.322	610.4
389.725	602.8
390.129	635
390.532	608
390.936	609.2
391.339	600.8
391.743	611.6
392.125	606.4
392.529	612.8
392.933	616.2
393.337	602.8
393.74	609.6
394.144	611
394.548	597
394.953	603.6
395.357	615
395.761	603.6
396.144	606.6
396.548	611.4
396.952	602.4
397.357	607.4
397.761	596.8
398.166	600.2
398.57	601.6
398.975	590.4
399.379	607.8
399.763	653
400.168	609
400.572	599.8
400.977	601.2
401.382	619.4
401.787	613.6
402.192	622.2
402.597	616.4
403.002	590.6
403.386	620.6
403.791	618.4
404.197	606.4
404.602	603.6
405.007	603.6
405.413	605.8
405.818	602
406.224	594.4
406.608	609.6
407.014	602.6
407.42	619.6
407.825	599.8
408.231	619
408.637	605
409.043	634
409.449	596.8
409.834	603.8
410.24	606.4
410.646	621.4
411.052	613.6
411.458	606.6
411.865	603.2
412.271	610.8
412.677	605.8
413.062	615.2
413.469	601.4
413.875	621.8
414.282	610.6
414.689	609.4
415.095	613
415.502	593.6
415.888	607
416.294	596.4
416.701	650.8
417.108	599.2
417.515	610.8
417.923	603.8
418.33	617.2
418.715	611.6
419.123	602.2
419.53	599.8
419.937	615
420.345	628.6
420.752	604.8
421.16	622.4
421.546	612.6
421.953	609.6
422.361	592.8
422.769	611.8
423.177	604.4
423.585	635.6
423.992	626.8
424.379	623.6
424.787	623.8
425.195	633.6
425.603	607.8
426.011	619.2
426.419	618
426.806	614.4
427.214	621.4
427.623	617.4
428.031	622.6
428.44	615.6
428.848	624.8
429.235	625.6
429.644	620.2
430.053	612.2
430.461	630.4
430.87	633.4
431.279	634.2
431.666	609.2
432.075	610.2
432.484	623
432.893	608.6
433.302	634
433.711	651.4
434.099	620.4
434.508	604.4
434.918	604.8
435.327	615.4
435.737	619
436.125	619.4
436.534	622.6
436.944	625.6
437.353	626.6
437.763	648.6
438.173	612.4
438.561	636.6
438.971	604.8
439.381	624.8
439.791	624.6
440.201	604.6
440.589	632.8
440.999	638
441.409	640.8
441.819	617.6
442.23	636.2
442.619	646.8
443.029	642.2
443.439	640.4
443.85	656.8
444.26	664.2
444.649	650.6
445.06	647.6
445.471	645.6
445.881	661.8
446.292	676.8
446.682	677.8
447.092	646.8
447.503	710
447.914	662.6
448.325	668
448.715	663.2
449.126	670.4
449.537	669.8
449.948	667.2
450.338	675.4
450.75	691
451.161	681.6
451.572	672.6
451.984	675.4
452.374	665.2
452.786	671.2
453.197	677.8
453.609	687.6
453.999	673.2
454.411	669
454.823	689.8
455.235	684.6
455.647	681.4
456.037	691.2
456.449	664.2
456.862	684.4
457.274	684
457.665	668.2
458.077	686
458.489	706.4
458.902	678.2
459.293	678.8
459.705	684.4
460.118	680.2
460.53	688
460.921	688
461.334	683.4
461.747	684.4
462.16	695
462.551	696.2
462.964	692.2
463.377	662
463.79	684.4
464.182	690
464.595	680.4
465.008	688.6
465.421	694.8
465.813	688.6
466.226	691.6
466.64	693.8
467.053	732.6
467.445	703.4
467.859	710.2
468.272	698.6
468.686	715.8
469.078	688.4
469.492	674.2
469.906	696.6
470.298	694.2
470.712	684.6
471.126	741.4
471.54	692.2
471.933	685.6
472.347	692
472.761	688.4
473.175	680.4
473.568	688
473.982	682.6
474.397	696.6
474.79	699
475.204	701.6
475.619	697
476.033	697
476.426	692.6
476.841	684
477.256	710.4
477.649	685.4
478.064	685
478.479	693.6
478.872	688
479.287	685.6
479.702	680.4
480.118	685.2
480.511	694
480.927	689.2
481.342	700.4
481.736	688.8
482.151	690.8
482.566	699
482.96	694.6
483.376	693
483.792	687.4
484.186	695
484.602	700
485.017	690
485.412	689.2
485.827	690.6
486.243	691.6
486.638	719.6
487.054	698
487.47	700.8
487.865	691
488.281	686.8
488.697	692.6
489.092	686
489.508	673.8
489.925	703.2
490.32	678.6
490.736	701.4
491.153	692.8
491.548	693.8
491.964	695
492.381	674
492.776	688.6
493.193	683.6
493.61	692.4
494.006	684.2
494.422	685.6
494.84	674.2
495.235	688.4
495.652	679.6
496.069	680.8
496.465	672
496.883	672.8
497.3	703.4
497.696	674.2
498.113	680.4
498.509	665
498.927	672
499.344	673.2
499.741	669.6
500.158	685.4
500.576	689.8
500.973	681.2
501.39	665.8
501.787	665.2
502.205	676
502.623	663.4
503.02	661.8
503.438	674.4
503.856	659.2
504.253	671.8
504.671	665.6
505.068	660.8
505.486	670.8
505.905	682.8
506.302	676.4
506.72	678.6
507.118	654.4
507.536	660.2
507.955	664.6
508.352	661.4
508.771	669.6
509.169	670.4
509.587	647.2
510.006	658.6
510.404	644.4
510.823	654.8
511.221	662.2
511.64	656
512.038	667
512.457	656.2
512.877	652
513.275	652
513.694	654.6
514.092	648.6
514.512	656.6
514.91	662.4
515.33	655
515.749	653.2
516.148	649.4
516.568	658.4
516.966	659.8
517.386	653.8
517.785	646
518.205	653
518.603	646.6
519.024	644.6
519.444	655.2
519.843	656.4
520.263	651
520.662	652
521.082	645.6
521.481	649.2
521.902	642.2
522.301	651.6
522.722	654.4
523.121	644.8
523.542	642.2
523.963	648.2
524.362	649.8
524.783	640
525.183	648.6
525.604	649.2
526.003	641.4
526.425	637.4
526.824	638.2
527.246	646.2
527.646	649.4
528.067	646.2
528.467	647.6
528.888	646.2
529.289	643.2
529.71	639
530.11	643
530.532	636
530.932	627
531.354	634
531.755	677
532.176	642.6
532.577	642
532.999	632
533.4	634.4
533.822	651.8
534.223	642.6
534.645	626
535.046	630.6
535.468	632.8
535.869	654.4
536.292	627.6
536.693	663.6
537.115	641.6
537.516	630
537.939	627.4
538.34	651
538.742	649.8
539.165	635.8
539.566	634.8
539.989	631.6
540.391	626.8
540.814	636.4
541.216	636
541.639	635
542.041	640.4
542.464	623.8
542.866	625.4
543.268	623.2
543.691	635.4
544.093	642.8
544.517	643.8
544.919	621.6
545.343	643.8
545.745	614.6
546.147	630.6
546.571	627.2
546.974	625.6
547.398	634.8
547.8	639.6
548.224	624.4
548.627	620.2
549.03	639.2
549.454	623.4
549.857	616.4
550.281	617.6
550.684	620.8
551.087	639.2
551.512	627.6
551.915	619.8
552.34	624
552.743	624.4
553.146	631.6
553.571	621
553.975	642.6
554.399	612.6
554.803	669
555.207	622
555.632	617.6
556.036	625.2
556.461	613.8
556.865	620
557.268	614.4
557.694	621
558.098	631.4
558.502	624.6
558.927	626.4
559.332	612.2
559.736	617.8
560.162	623.6
560.566	623.8
560.992	622.4
561.396	617.6
561.801	620.4
562.227	614.6
562.631	613
563.036	618.6
563.462	630.4
563.867	623.2
564.272	610.2
564.698	626
565.103	608.8
565.508	632.2
565.935	613.8
566.34	618.6
566.745	628.8
567.172	613.2
567.577	633.6
567.982	623.6
568.409	619
568.815	609.8
569.22	617.4
569.626	620
570.053	591
570.459	615.6
570.865	613.2
571.292	614.2
571.698	611.2
572.104	601.6
572.531	604.2
572.937	614.4
573.343	616.6
573.75	606.4
574.177	607.6
574.583	604.4
574.99	605.2
575.396	616.4
575.824	611.2
576.231	622.8
576.637	607.6
577.065	628.6
577.472	615
577.879	607.4
578.286	615.4
578.714	603.6
579.121	601.6
579.528	612.6
579.935	608
580.364	614.4
580.771	595.4
581.178	599.4
581.585	603.8
582.014	608
582.421	598
582.829	602.8
583.236	613.4
583.644	600.6
584.073	608.4
584.481	603.4
584.889	606.8
585.296	611.6
585.726	605.6
586.134	595.4
586.542	607.2
586.95	622.2
587.358	591.8
587.787	596.2
588.196	610.6
588.604	604.8
589.012	614.8
589.421	595.8
589.851	606.4
590.259	610.4
590.668	604.2
591.076	629
591.485	592.4
591.894	592.2
592.324	610.2
592.733	616.4
593.142	586.6
593.551	595.8
593.96	639.6
594.369	583.6
594.8	594.6
595.209	602
595.618	588.4
596.028	594.4
596.437	597
596.847	605.4
597.256	603.6
597.687	606.2
598.097	597.8
598.507	588.6
598.917	600
599.327	605
599.736	599.2
600.146	613.8
600.556	601.8
600.988	611
601.398	602.6
601.808	609.4
602.219	591.4
602.629	605
603.039	604.2
603.45	620.8
603.86	593
604.271	616.2
604.703	601.2
605.114	595.8
605.525	604
605.935	593.6
606.346	616
606.757	593.4
607.168	596.2
607.579	589.6
607.99	599
608.402	600.2
608.813	602.6
609.224	588.4
609.636	582.6
610.047	590.6
610.48	587.6
610.892	595.6
611.303	599.6
611.715	594.4
612.127	596.2
612.539	591
612.95	592.8
613.362	586
613.774	582.2
614.186	597.4
614.599	590.6
615.011	602.4
615.423	601.4
615.835	586.4
616.248	583.8
616.66	597
617.073	582.2
617.485	596.8
617.898	602
618.311	600.6
618.723	594.8
619.136	622.4
619.549	616
619.962	619.2
620.375	595.4
620.788	596.4
621.201	592.8
621.614	613
622.028	590.2
622.441	602
622.854	608.6
623.268	588.6
623.681	605.8
624.095	589.8
624.509	615.4
624.922	598
625.336	589.2
625.728	596
626.142	602.4
626.556	608.8
626.97	586.6
627.384	582.4
627.799	592
628.213	607.4
628.627	596
629.041	589.4
629.456	585.2
629.87	592.6
630.285	604
630.699	596.2
631.093	584.4
631.507	598
631.922	601.8
632.337	602.6
632.752	590.8
633.167	594.6
633.582	584.8
633.997	589.6
634.412	582.2
634.806	598.2
635.221	583.4
635.637	598.8
636.052	580.6
636.468	587.6
636.883	607
637.299	597.4
637.715	589.2
638.109	598.6
638.525	576
638.941	608.2
639.357	593.6
639.773	601.4
640.189	585.6
640.584	591.4
641	593.2
641.416	590.4
641.832	591
642.249	588.8
642.665	589
643.06	599.2
643.477	592.4
643.894	588
644.31	593.6
644.727	590.8
645.123	594
645.54	584.6
645.957	588.4
646.374	606.6
646.77	586.6
647.187	621.8
647.604	590
648.021	584.6
648.439	578
648.835	594.4
649.252	592.8
649.67	584.6
650.088	589.2
650.484	592.2
650.902	599
651.32	599.2
651.738	581.6
652.134	582.4
652.552	609.4
652.971	598.4
653.389	584
653.786	597.8
654.204	610.8
654.622	583.4
655.019	586.6
655.438	593.8
655.857	598.8
656.275	590
656.673	581.6
657.091	603.4
657.51	581.4
657.908	592
658.327	611
658.746	572.2
659.144	595.8
659.563	608
659.982	595.2
660.38	579.2
660.8	591.4
661.219	594.2
661.617	594.2
662.037	590.4
662.457	597.4
662.855	574.2
663.275	613.2
663.695	586
664.094	585.8
664.514	591.2
664.934	586.6
665.333	592.6
665.753	595.2
666.152	580.6
666.572	581.8
666.993	593.4
667.392	586.4
667.812	586.4
668.212	586.8
668.632	600
669.053	584
669.453	589.4
669.874	584.2
670.273	590.2
670.694	575.2
671.116	596.6
671.515	593.8
671.937	588.2
672.337	577
672.758	583.2
673.158	591.2
673.58	575.2
673.98	599.4
674.402	597
674.824	581.6
675.224	584.4
675.646	571.8
676.047	585.6
676.469	585.2
676.869	592.6
677.292	595.8
677.693	587.2
678.115	583.2
678.516	591.4
678.939	586.6
679.34	590.4
679.762	594
680.164	590.4
680.586	575
680.988	593.8
681.411	614.4
681.812	589.6
682.236	575.6
682.637	576.4
683.061	592
683.462	593.6
683.864	578
684.288	600.4
684.69	584
685.114	596.2
685.516	592.2
685.94	580.4
686.342	593
686.766	583.6
687.168	585
687.571	604.2
687.995	589.8
688.398	584.6
688.822	580.2
689.225	601.8
689.628	596
690.052	586.8
690.456	592.6
690.88	593.4
691.284	578
691.687	594.8
692.112	579.2
692.515	577
692.919	578
693.344	588.2
693.747	582.6
694.173	582.8
694.577	596.8
694.98	585.8
695.406	576.8
695.81	592.6
696.214	594.6
696.64	589.6
697.044	584.4
697.448	599.2
697.874	582.2
698.279	591.2
698.684	575.8
699.11	573.2
699.514	584
699.919	572.8
700.324	573.4
700.75	584.2
701.156	588.4
701.561	592.2
701.987	585.2
702.393	588.8
702.798	588.2
703.203	583.2
703.63	585.2
704.036	583.2
704.442	595.2
704.847	576
705.274	583.8
705.68	582.6
706.086	586.4
706.492	578.4
706.92	573.8
707.326	586
707.732	582
708.139	569
708.545	568.8
708.973	575.8
709.38	583
709.786	567.8
710.193	590.6
710.6	580
711.028	579.2
711.435	580.6
711.842	577
712.249	575.4
712.656	586.4
713.064	593
713.492	577.8
713.9	580.2
714.307	587
714.715	589.6
715.123	583
715.53	587.6
715.938	593.6
716.367	589.4
716.775	592
717.184	581.2
717.592	581.8
718	599.4
718.408	608.8
718.816	620.4
719.225	588.8
719.633	589.4
720.042	582.4
720.472	588
720.881	601
721.29	591.6
721.699	573.6
722.108	599.2
722.517	591.2
722.926	583.8
723.335	594.2
723.744	587.4
724.154	589
724.563	590.6
724.973	593.2
725.382	583
725.792	580.8
726.202	581
726.612	607
727.022	581.4
727.432	583
779.813	575.4
780.223	632.2
780.634	576.8
781.044	572.2
781.454	579.6
781.865	604.4
782.276	576.4
782.686	588.4
783.097	581.6
783.508	579.8
783.919	593.2
784.33	591.4
784.741	593.8
785.152	579
785.563	575.8
785.974	574.2
786.386	595
786.776	576.4
787.188	586.2
787.599	568.8
788.011	590
788.423	578.4
788.835	573.2
789.247	578.8
789.659	584.2
790.071	579.6
790.483	627
790.874	584.8
791.286	588.8
791.699	582.2
792.111	581.6
792.524	584.2
792.937	578.6
793.349	571.6
793.741	575.8
794.154	575.2
794.567	608.8
794.98	580.4
795.393	577.2
795.785	601.2
796.198	577.2
796.612	589.4
797.026	575.2
797.439	569.4
797.831	576.2
798.245	573.4
798.659	591.4
799.073	574
799.487	570.2
799.88	584
800.294	582
800.708	588
801.123	583.8
801.516	597.4
801.93	573
802.345	571
802.76	580.4
803.153	601.8
803.568	590.4
803.983	590.8
804.377	587.8
804.792	573.4
805.207	571
805.601	580.8
806.016	618.6
806.432	570.2
806.826	614.8
807.242	599.8
807.658	584
808.052	582.8
808.468	579.8
808.884	577.2
809.279	573.2
809.695	589.4
810.111	603
810.506	588.8
810.922	600.8
811.339	579
811.734	589
812.151	585.8
812.546	574.6
812.963	571.6
813.38	583.2
813.776	584
814.193	599
814.589	578.8
815.006	574.8
815.402	569.4
815.82	570.2
816.237	577.6
816.633	585.6
817.051	574.4
817.448	586.4
817.866	568.2
818.262	600.8
818.68	575.6
819.077	577.4
819.495	578
819.892	621.8
820.311	579.2
820.708	578.4
821.127	570.8
821.524	589.8
821.943	577.6
822.34	594
822.759	584.4
823.157	576
823.576	595.6
823.974	586.2
824.393	604
824.791	575.6
825.189	565.8
825.609	572.8
826.007	577.2
826.427	568.4
826.826	570.8
827.246	589
827.644	563.8
828.043	596.2
828.463	572.6
828.862	585
829.261	591.8
829.682	569.4
830.081	588.2
830.502	572.4
830.901	585
831.301	598.2
831.722	574.2
832.121	582.4
832.521	576.6
832.943	573.2
833.342	580.8
833.742	574
834.164	574.8
834.564	565.2
834.965	578.2
835.386	570
835.787	577
836.188	569.4
836.588	583.2
837.01	577
837.411	565.6
837.812	583.4
838.213	587.2
838.636	579
839.037	643.8
839.438	586.2
839.84	582.6
840.263	581.2
840.664	576.2
841.066	576.2
841.468	584.2
841.891	580.8
842.293	589.6
842.695	584
843.098	595
843.5	575.8
843.902	592.4
844.326	589
844.729	577.6
845.131	592.4
845.534	582.4
845.937	591.6
846.34	595.6
846.764	572.6
847.167	580.8
847.571	570.8
847.974	574
848.377	566.4
848.781	631.4
849.184	597.2
849.588	582.8
849.992	578.6
850.396	576
850.821	594.2
851.225	581.4
851.63	578
852.034	594.6
852.438	578.2
852.843	609.4
853.247	572.2
853.652	572.2
854.057	592.6
854.462	578.8
854.867	574.8
855.272	605.4
855.677	587.6
856.082	568.8
856.487	565.2
856.893	580.8
857.298	573.6
857.704	570.2
858.11	576.2
858.516	588
858.922	586.4
859.328	587
859.734	583.8
860.14	580.2
860.525	580
860.931	574.2
861.338	574.2
861.745	584
862.151	584.6
862.558	574.8
862.965	569
863.372	569.2
863.779	583.6
864.186	595.6
864.572	583
864.98	608.2
865.387	606.6
865.795	571.4
866.203	587.4
866.61	573.6
867.018	586.6
867.405	584.4
867.813	576.4
868.221	573.4
868.63	578
869.038	586.2
869.425	614.4
869.834	577.6
870.243	571.8
870.652	571.6
871.039	573.4
871.448	572.4
871.857	587.8
872.266	579.2
872.654	591.8
873.064	577.8
873.473	587.6
873.883	576.4
874.271	579.8
874.681	589.4
875.091	563.4
875.48	594.4
875.89	601.2
876.3	576.6
876.689	566
877.1	576.8
877.51	579.2
877.9	596.8
878.31	573
878.721	601.6
879.111	580.6
879.522	583.4
879.933	573
880.323	564.8
880.734	572.6
881.125	574.6
881.536	578.6
881.948	576.6
882.338	579.6
882.75	583.2
883.141	574.8
883.553	585.8
883.944	607
884.356	583
884.769	574
885.16	581.6
885.573	583.2
885.964	575.4
886.377	580
886.768	565.2
887.181	579
887.573	572
887.987	605.6
888.378	584
888.792	581.8
889.184	631
889.598	579.2
889.99	583.8
890.383	578
890.797	565.8
891.19	587
891.604	574.4
891.997	571.4
892.411	566.8
892.805	565
893.198	578.6
893.613	565.2
894.006	578.4
894.421	566.4
894.815	567.6
895.209	571
895.624	615.2
896.018	595.2
896.412	569.6
896.828	582.8
897.222	579.4
897.617	578.4
898.033	599
898.427	578.2
898.822	582
899.239	571
899.634	567.4
900.029	596
900.424	566.2
900.841	568.4
901.236	587.4
901.632	580.6
902.027	629.6
902.445	585
902.841	577.6
903.237	574.8
903.633	588.6
904.05	577.2
904.447	578.2
904.843	594.2
905.24	581.2
905.636	566.6
906.033	585.4
906.451	586.4
906.848	571.2
907.246	582.4
907.643	578.4
908.04	585.6
908.438	585.6
908.835	588.2
909.254	574.8
909.652	584.8
910.05	571.4
910.448	569.4
910.846	576.2
911.244	565.6
911.643	576
912.041	575
912.44	589
912.839	573.4
913.237	573.6
913.636	566.2
914.035	583.4
914.434	565.2
914.834	584.2
915.233	585.4
915.633	570.4
916.032	564.8
916.432	566.8
916.832	591.8
917.232	573.2
917.632	565.8
918.032	571.2
918.432	575
918.833	573.4
919.233	576.6
919.634	564.8
920.035	586
920.436	579.8
920.837	580.4
921.238	571
921.639	582
922.019	576.4
922.42	576
922.822	590.4
923.224	575
923.625	570.2
924.027	579.2
924.429	606.6
924.81	577.2
925.212	584
925.615	579.4
926.017	580
926.42	592
926.801	585
927.204	569
927.607	586.4
928.01	587
928.413	572.8
928.795	566.2
929.199	571.8
929.602	572.2
930.006	567.8
930.388	562
930.792	580.4
931.196	571.2
931.579	603.6
931.983	571.2
932.388	630.4
932.771	579
933.176	566.6
933.58	571.6
933.964	580.6
934.369	573.2
934.774	578.6
935.158	576
935.563	580.2
935.947	571.4
936.353	585
936.759	573.4
937.143	578.4
937.549	568.6
937.934	590.4
938.34	588
938.746	569
939.131	573.8
939.538	567
939.923	575.8
940.33	576.4
940.716	576.2
941.123	580.4
941.508	580.4
941.916	594
942.302	582.6
942.709	566.2
943.096	561.6
943.503	577.4
943.89	569.4
944.298	573
944.685	599.2
945.072	571
945.48	588.2
945.867	565.6
946.276	568.4
946.663	591.8
947.051	594.4
947.46	588.8
947.848	579.4
948.257	573.8
948.645	571.4
949.033	564.6
949.443	562
949.831	609.6
950.22	566.2
950.63	580.6
951.018	598.2
951.407	571.4
951.796	574.2
952.207	569
952.596	576.6
952.985	563.8
953.375	622.4
953.786	577.4
954.176	566.8
954.566	576
954.956	569.2
955.367	578
955.758	600.6
956.148	565
956.539	591
956.929	564.2
957.341	565
957.732	574
958.123	581.4
958.515	563
958.906	574.2
959.297	575.8
959.689	568.6
960.102	560.8
960.494	577.8
960.886	573.4
961.278	573.4
961.67	597.8
962.062	602.2
962.455	582.2
962.847	568
963.24	564
963.633	575.4
964.026	571.2
964.419	575.8
964.812	586.6
965.206	566.2
965.599	583.2
965.993	580.6
966.386	569.8
966.78	580.2
967.174	584.4
967.569	568.4
967.963	565
968.357	566.4
968.752	577.6
969.146	569.8
969.541	564.2
969.936	576.4
970.331	579
970.705	574.8
971.1	568.4
971.496	579.4
971.892	570.4
972.287	570.8
972.683	578.2
973.079	569.4
973.454	584.4
973.85	571.6
974.247	578
974.643	601.4
975.04	575.4
975.415	570.2
975.812	569.4
976.209	578.8
976.607	569.4
976.982	588.4
977.38	600.8
977.778	568
978.175	567.2
978.552	583.8
978.95	589.2
979.348	578.8
979.725	619.6
980.123	568.4
980.522	582.4
980.899	570.8
981.298	565
981.697	576
982.075	568.6
982.474	569.8
982.852	571.8
983.251	575.4
983.651	571.2
984.029	579.2
984.429	569
984.808	563.4
985.208	561
985.609	568.4
985.987	560.4
986.388	574.8
986.768	582.6
987.168	567.6
987.548	588.6
987.949	580.4
988.329	577.8
988.731	562
989.111	574
989.491	570
989.893	567.6
990.273	582
990.676	558.6
991.057	562.4
991.459	571.4
991.84	570.4
992.221	567.2
992.624	585.8
993.006	571.6
993.388	573.6
993.791	584.4
994.173	570.6
994.576	610.6
994.959	569.8
995.341	567.2
995.724	567.8
996.128	572.4
996.511	571.4
996.894	569.2
997.298	575.2
997.681	579
998.065	578.2
998.448	572.4
998.854	582.8
999.237	567
999.621	581.2
1000.01	596.6
1000.39	577.4
1000.8	571.8
1001.18	579
1001.56	579.4
1001.95	581.8
1002.33	578.6
1002.72	567.6
1003.13	565.8
1003.51	565.4
1003.9	570.2
1004.28	589.2
1004.67	569.6
1005.06	567.8
1005.44	606.6
1005.83	554.2
1006.21	569.4
1006.6	568
1006.99	574.2
1007.37	583.4
1007.76	575.2
1060.12	571.8
1060.51	566.2
1060.89	572.6
1061.28	590.6
1061.67	587.8
1062.06	583.8
1062.45	571
1062.83	572
1063.22	580.8
1063.61	613.6
1064	577.4
1064.39	581.8
1064.78	572.4
1065.14	578.8
1065.53	584.4
1065.92	563.8
1066.31	567.8
1066.7	581.6
1067.09	589.4
1067.46	583.4
1067.85	571
1068.24	580
1068.63	578.4
1069.02	566
1069.39	570.6
1069.78	566.6
1070.17	569
1070.57	566.6
1070.93	570.4
1071.33	562.4
1071.72	589.8
1072.11	567
1072.48	563.8
1072.87	579.6
1073.26	571
1073.64	563.4
1074.03	570.6
1074.4	571.2
1074.79	555.8
1075.19	573.2
1075.56	588.4
1075.95	577
1076.34	571
1076.72	566.8
1077.11	577.8
1077.48	581.6
1077.88	582.2
1078.25	578.4
1078.64	589.8
1079.02	581.2
1079.41	586.2
1079.78	577
1080.18	566.4
1080.55	640.2
1080.95	571.2
1081.32	562.8
1081.72	569
1082.09	565.6
1082.49	558.8
1082.86	570
1083.24	559
1083.63	558.4
1084.01	573.4
1084.38	573.4
1084.78	566.6
1085.16	565.8
1085.55	584.8
1085.93	583.6
1086.31	566.8
1086.7	594.8
1087.08	573.4
1087.46	578.8
1087.83	563.6
1088.23	578.6
1088.61	569.2
1088.99	577.2
1089.36	569.6
1089.76	579.6
1090.14	574.8
1090.52	573.8
1090.9	569.8
1091.27	586.6
1091.67	595.8
1092.05	579.2
1092.43	574.6
1092.81	578
1093.19	586
1093.57	565.8
1093.95	568.6
1094.35	580.8
1094.73	577
1095.11	568
1095.49	566.2
1095.87	567.4
1096.25	581.2
1096.63	581.6
1097.01	572.4
1097.39	579.4
1097.77	567.6
1098.15	575.8
1098.53	566.4
1098.91	569.8
1099.29	573.8
1099.68	589
1100.06	587.2
1100.44	566
1100.82	575.6
1101.18	578.8
1101.56	571.8
1101.95	569
1102.33	566.6
1102.71	575.8
1103.1	558
1103.48	561
1103.86	557.2
1104.22	581.6
1104.61	576.2
1104.99	576.4
1105.38	564.6
1105.76	572.8
1106.12	567
1106.51	612.6
1106.89	579
1107.26	573.2
1107.64	580.2
1108.03	569.4
1108.41	571.8
1108.78	572
1109.16	573.8
1109.55	577.2
1109.91	561.4
1110.3	551.6
1110.69	584
1111.05	570.8
1111.44	570.4
1111.8	568.6
1112.19	584.4
1112.58	574.2
1112.94	571
1113.33	570.6
1113.7	567.2
1114.09	565.6
1114.45	572
1114.84	566
1115.21	581
1115.6	565
1115.96	580
1116.35	580.8
1116.72	569.6
1117.11	579.8
1117.48	562.2
1117.85	563.8
1118.24	584.4
1118.6	574.6
1118.99	563.6
1119.36	570.4
1119.73	572
1120.12	571.2
1120.49	560.6
1120.86	574.8
1121.25	577
1121.62	564
1121.99	561.2
1122.38	583.8
1122.76	577.6
1123.13	573.6
1123.5	577
1123.89	574
1124.26	552.8
1124.63	571.4
1125	573.2
1125.4	559
1125.77	564.2
1126.14	558.6
1126.51	569.6
1126.88	564.6
1127.26	565.2
1127.63	560.4
1128.02	563.2
1128.4	557.6
1128.77	565.8
1129.14	565.8
1129.52	568.8
1129.89	573
1130.26	558.4
1130.64	557.4
1131.01	557.8
