#lambda/nm	C1
208.295	511.8
208.67	474.2
209.045	427.6
209.419	437.4
209.794	616.8
210.169	593.6
210.544	718.4
210.919	618.2
211.295	610.4
211.67	617.2
212.045	613
212.421	613.6
212.796	649.8
213.172	618
213.547	612.6
213.923	613.8
214.299	610.4
214.675	623.4
215.051	617
215.427	627
215.803	627.8
216.179	617
216.555	613.2
216.932	622.2
217.308	617.4
217.684	615.6
218.061	621
218.438	612
218.814	596.4
219.191	617.4
219.568	607.8
219.945	606.2
220.322	620.4
220.699	619.6
221.076	616
221.453	621.6
221.83	610.8
222.208	608.8
222.585	621.8
222.962	614.6
223.34	621.2
223.717	607.6
224.095	608.4
224.473	611.4
224.851	612
225.229	605.6
225.607	635.2
225.985	611.4
226.363	619.8
226.741	613.4
227.119	615.4
227.497	626.2
227.876	608.6
228.254	616.6
228.633	615.6
229.011	617.6
229.39	620.6
229.769	616.8
230.148	612.2
230.527	631.6
230.905	612.8
231.284	615.6
231.664	607
232.043	622.8
232.422	617.8
232.801	607.4
233.181	622.2
233.56	612.4
233.94	618.8
234.319	608.8
234.699	607.8
235.079	657.6
235.458	657.6
235.838	630
236.218	609.6
236.598	606
236.978	613.8
237.358	601.2
237.738	611
238.119	623.4
238.499	610.2
238.88	617.6
239.26	630
239.641	614.6
240.021	613.6
240.402	619.2
240.783	611.2
241.163	616.8
241.544	611.6
241.925	621
242.306	633
242.687	615
243.069	624.2
243.45	622.6
243.831	607.4
244.212	619.6
244.594	656
244.975	628.8
245.357	611.2
245.739	607.6
246.12	621
246.502	625.8
246.884	612.4
247.266	621
247.648	617.8
248.03	640.4
248.412	619
248.794	612
249.176	610.8
249.559	617.4
249.941	618
250.323	608.8
250.706	611.2
251.089	611.2
251.471	615.4
251.854	614.4
252.237	617.8
252.62	621.2
253.002	613.8
253.385	618
253.769	632.8
254.152	614.6
254.535	626
254.918	607.2
255.301	617.6
255.685	620.4
256.068	603.2
256.452	632.2
256.835	626.8
257.219	623.8
257.603	624.6
257.986	599.4
258.37	623
258.754	603.8
259.138	614.2
259.522	616.4
259.906	602.6
260.29	621
260.675	606
261.059	624.2
261.443	606.4
261.828	619.4
262.212	624.6
262.597	603
262.981	612.4
263.366	611.6
263.751	610.8
264.136	611.2
264.521	615.4
264.906	611
265.291	635.4
265.676	613.6
266.061	623.6
266.446	624.2
266.831	609.2
267.217	642.4
267.602	619.6
267.987	616.8
268.373	616.6
268.759	622.6
269.144	626
269.53	622.2
269.916	609.4
270.302	611.8
270.688	622
271.074	616.4
271.46	630
271.846	648.8
272.232	623
272.618	611.2
273.004	618.4
273.391	620.2
273.777	625
274.164	616
274.55	630.6
274.937	618.6
275.324	614.8
275.71	622.4
276.097	623.6
276.484	613
276.871	620.4
277.258	622.6
277.645	603.6
278.032	613.8
278.419	612.4
278.807	615.8
279.194	613
279.581	616.6
279.969	624.8
280.356	621.2
280.744	618.2
281.131	648.4
281.519	628.8
281.907	611.2
282.295	605.8
282.682	627.6
283.07	612
283.458	623.4
283.846	625.4
284.235	634
284.623	627.2
285.011	615.8
285.399	624.6
285.788	615.4
286.176	599.8
286.565	628.4
286.953	598.8
287.342	605.4
287.731	605.4
288.119	610.8
288.508	612
288.897	616.6
289.286	607.4
289.675	612.4
290.064	618.2
290.453	611.6
290.821	616.4
291.21	620.2
291.599	603.6
291.989	622.6
292.378	619.8
292.768	632.6
293.157	621.4
293.547	622.4
293.936	618
294.326	609.4
294.716	613.6
295.106	613
295.496	627
295.886	628
296.276	620.6
296.666	611
297.056	607.8
297.446	594.8
297.836	626.2
298.227	619.8
298.617	617.4
299.008	628.6
299.398	620
299.789	611.4
300.179	619.4
300.57	634.2
300.961	617.4
301.352	613
301.742	625.2
302.133	618.4
302.524	615.6
302.915	616
303.307	613
303.698	632.2
304.089	620.6
304.48	614.8
304.872	619.8
305.263	620.2
305.655	612.6
306.046	622.4
306.438	626.2
306.829	615.2
307.221	625.8
307.613	621
308.005	622.8
308.397	622.4
308.789	641.6
309.181	644
309.573	639.4
309.965	634
310.357	615.4
310.749	635.6
311.142	612.6
311.534	616.4
311.926	626
312.319	626.8
312.711	611.8
313.104	624.8
313.497	616
313.889	661.6
314.282	639.2
314.675	639
315.068	623.2
315.461	626.8
315.854	653.4
316.247	618.4
316.64	614.2
317.033	624.6
317.405	628.2
317.798	618
318.192	620
318.585	613.2
318.979	624.8
319.372	607.2
319.766	619.4
320.16	624
320.553	636
320.947	640.8
321.341	612
321.735	619.6
322.129	610
322.523	640.8
322.917	611.8
323.311	628
323.705	628.6
324.099	627.8
324.494	629.8
324.888	629.8
325.282	618
325.677	631
326.071	629.6
326.466	629
326.861	614.8
327.255	622.6
327.65	636.8
328.045	633.8
328.44	618.6
328.835	622
329.23	610
329.625	647
330.02	618
330.415	632.8
330.81	609.2
331.206	619.4
331.601	613.6
331.996	632
332.37	638.2
332.766	610.8
333.161	637.2
333.557	617.8
333.953	621.8
334.348	962.2
334.744	622.4
335.14	616.6
335.536	614.2
335.932	637
336.328	620.2
336.724	632.4
337.12	621
337.516	627
337.913	618
338.309	629
338.705	618.6
339.102	630.4
339.498	612.4
339.895	641.2
340.291	619.8
340.688	619
341.085	606.4
341.481	615
341.878	608.6
342.275	631.4
342.672	608.2
343.069	607.4
343.466	606
343.842	630.2
344.239	607.2
344.636	619.6
345.033	609.8
345.431	618
345.828	620
346.225	611.4
346.623	650.4
347.02	615.4
347.418	626.4
347.816	630
348.213	606.4
348.611	619.2
349.009	611.8
349.407	621
349.805	608.4
350.203	610
350.601	629
350.999	607.8
351.397	673.8
351.795	619.4
352.193	624
352.57	621.8
352.969	619.4
353.367	607
353.766	607
354.164	616.4
354.563	623.4
354.961	613.8
355.36	614.6
355.759	623.6
356.158	593.4
356.557	604
356.956	603.8
357.355	601.4
357.754	611.2
358.153	613.8
358.552	633
358.951	609.2
359.35	617.6
359.75	606
360.149	601.6
360.527	601
360.926	601.6
361.326	616.8
361.726	607
362.125	605.4
362.525	619
362.925	614.8
363.325	605.6
363.724	610.4
364.124	596.6
364.524	597.4
364.924	610.4
365.324	623.6
365.725	590.2
366.125	620.4
366.525	607.2
366.904	605.2
367.304	598.4
367.705	624.4
368.105	618.8
368.506	610.8
368.906	614.6
369.307	614
369.708	614.4
370.108	601.6
370.509	614.6
370.91	606
371.311	607
371.712	610
372.113	610.2
372.514	596.6
372.894	605.6
373.295	610.2
373.696	620
374.097	609.2
374.499	650.4
374.9	611.4
375.301	605.2
375.703	617.6
376.105	605.4
376.506	619.4
376.908	607.4
377.309	611
377.711	606.6
378.113	611.8
378.493	606.8
378.895	603.2
379.297	618.6
379.699	600.2
380.102	617.6
380.504	605.4
380.906	605.2
381.308	633.2
381.71	608.2
382.113	622.6
382.515	612.6
382.918	604.8
383.299	602.2
383.701	615.8
384.104	603.6
384.507	588
384.909	606.2
385.312	592
385.715	595
386.118	601.4
386.521	597
386.924	612.4
387.327	592.8
387.709	594
388.112	590
388.515	600.4
388.918	604.6
389.322	603.4
389.725	602.4
390.129	635.6
390.532	616.6
390.936	602.2
391.339	593.4
391.743	607.2
392.125	610.4
392.529	615.6
392.933	617.8
393.337	612.6
393.74	603.8
394.144	605.6
394.548	607.8
394.953	610.4
395.357	608.4
395.761	608.4
396.144	608.4
396.548	606
396.952	617.4
397.357	611.6
397.761	605.4
398.166	602.2
398.57	609.8
398.975	598.2
399.379	612.4
399.763	655.8
400.168	612.4
400.572	606.8
400.977	616.2
401.382	633.2
401.787	618.2
402.192	633.6
402.597	630.4
403.002	591.6
403.386	628
403.791	626.2
404.197	614
404.602	619
405.007	606.8
405.413	613.6
405.818	602.6
406.224	601.6
406.608	607
407.014	603
407.42	622
407.825	613.6
408.231	620
408.637	615.4
409.043	622.6
409.449	605
409.834	605
410.24	608
410.646	620.8
411.052	612.8
411.458	607
411.865	627.6
412.271	620.2
412.677	602.4
413.062	611.4
413.469	600.6
413.875	633.6
414.282	616.8
414.689	603.2
415.095	617.6
415.502	604.2
415.888	611.2
416.294	591.2
416.701	646.8
417.108	610.2
417.515	622.2
417.923	607.4
418.33	629.2
418.715	612.4
419.123	607.2
419.53	615.6
419.937	609.2
420.345	626.4
420.752	609.2
421.16	626.6
421.546	614.2
421.953	620.8
422.361	600
422.769	609.4
423.177	602.6
423.585	624
423.992	624.4
424.379	616.6
424.787	616.2
425.195	629
425.603	613.4
426.011	623.4
426.419	623.6
426.806	618.8
427.214	614
427.623	619
428.031	620.4
428.44	610.2
428.848	620.8
429.235	630.8
429.644	612.6
430.053	610.2
430.461	620
430.87	640.6
431.279	621.4
431.666	611
432.075	618.6
432.484	621.6
432.893	606.6
433.302	630.4
433.711	653.8
434.099	625.4
434.508	620.8
434.918	601.4
435.327	630.8
435.737	619
436.125	624.8
436.534	621.4
436.944	625.4
437.353	632
437.763	643.4
438.173	625.8
438.561	648.2
438.971	626.8
439.381	640
439.791	642.2
440.201	630
440.589	657
440.999	662.6
441.409	655
441.819	640.6
442.23	667.8
442.619	674.4
443.029	667
443.439	675.2
443.85	681.4
444.26	686.6
444.649	684
445.06	682.8
445.471	674.8
445.881	683
446.292	707.4
446.682	708
447.092	689.8
447.503	748
447.914	695.4
448.325	701.2
448.715	702.4
449.126	693.8
449.537	708.4
449.948	707
450.338	698
450.75	722.4
451.161	713.2
451.572	718.6
451.984	708.6
452.374	693.2
452.786	714.6
453.197	719.8
453.609	722.4
453.999	703.6
454.411	701.2
454.823	726.4
455.235	721.4
455.647	720.6
456.037	732
456.449	705.6
456.862	716
457.274	713.8
457.665	718
458.077	733.8
458.489	747.8
458.902	733.2
459.293	730.8
459.705	725.2
460.118	731.4
460.53	733.8
460.921	733.4
461.334	736.6
461.747	737.8
462.16	747.4
462.551	751
462.964	743.4
463.377	734
463.79	752.4
464.182	752.2
464.595	741.8
465.008	744
465.421	752
465.813	745.8
466.226	752.8
466.64	755
467.053	796.2
467.445	750
467.859	771.6
468.272	762.4
468.686	751.2
469.078	743.6
469.492	743.6
469.906	765
470.298	755.2
470.712	744
471.126	799.4
471.54	757
471.933	749.2
472.347	750
472.761	754.4
473.175	747.2
473.568	756.6
473.982	749.8
474.397	755
474.79	747
475.204	766.6
475.619	752.8
476.033	755.2
476.426	755
476.841	749
477.256	780.8
477.649	755
478.064	747.2
478.479	741.2
478.872	753.8
479.287	743.8
479.702	749.4
480.118	752.2
480.511	759.2
480.927	753.6
481.342	738.2
481.736	753
482.151	738
482.566	747.2
482.96	743.4
483.376	752
483.792	739.4
484.186	760.2
484.602	743.6
485.017	752.4
485.412	748.2
485.827	750.4
486.243	749
486.638	770.8
487.054	756.6
487.47	762.6
487.865	738.4
488.281	745.2
488.697	734.8
489.092	732.8
489.508	730.6
489.925	751.8
490.32	739.4
490.736	742.4
491.153	733.6
491.548	744.8
491.964	745.8
492.381	726
492.776	737.4
493.193	741.4
493.61	744.4
494.006	737.8
494.422	740.6
494.84	727.6
495.235	752.8
495.652	726.4
496.069	726.4
496.465	716.8
496.883	725.2
497.3	752.4
497.696	728.8
498.113	741.8
498.509	718.2
498.927	720.4
499.344	714.8
499.741	714
500.158	736
500.576	739
500.973	722.4
501.39	708.8
501.787	709
502.205	716.8
502.623	707.2
503.02	704.2
503.438	706.8
503.856	713
504.253	717.6
504.671	722.4
505.068	715.6
505.486	708.2
505.905	734.2
506.302	711.8
506.72	722.2
507.118	704.4
507.536	714.2
507.955	704.8
508.352	712.2
508.771	713.2
509.169	704.2
509.587	703.4
510.006	702.6
510.404	690.2
510.823	697.4
511.221	698.2
511.64	693.8
512.038	702.4
512.457	688.8
512.877	687
513.275	690.8
513.694	697.8
514.092	692.6
514.512	686
514.91	693.6
515.33	678.4
515.749	690.4
516.148	691
516.568	692.8
516.966	688.2
517.386	674.8
517.785	690.8
518.205	672
518.603	682.6
519.024	678.4
519.444	683.4
519.843	684.6
520.263	688.2
520.662	685.4
521.082	672.4
521.481	674.2
521.902	672.8
522.301	679.2
522.722	675
523.121	664.4
523.542	672
523.963	670.4
524.362	676
524.783	676.6
525.183	681.2
525.604	667
526.003	668.2
526.425	668
526.824	673.8
527.246	674
527.646	679.4
528.067	678.2
528.467	659.8
528.888	662.8
529.289	672.8
529.71	659.4
530.11	651.2
530.532	657.2
530.932	653.2
531.354	658.8
531.755	685.2
532.176	671.8
532.577	667.6
532.999	651
533.4	651.4
533.822	669.6
534.223	669
534.645	651
535.046	648.8
535.468	651.2
535.869	674.4
536.292	647.6
536.693	694.8
537.115	649.4
537.516	652.8
537.939	641.8
538.34	661.8
538.742	665.8
539.165	648.6
539.566	653.4
539.989	645
540.391	647.8
540.814	651.4
541.216	653
541.639	645.4
542.041	649.6
542.464	645.4
542.866	640.4
543.268	642
543.691	652.8
544.093	651
544.517	672.4
544.919	640.8
545.343	669.8
545.745	646.6
546.147	645
546.571	646
546.974	631.6
547.398	639.6
547.8	652.6
548.224	640
548.627	628.2
549.03	647.2
549.454	631.6
549.857	628.6
550.281	624.8
550.684	631.8
551.087	641
551.512	644.6
551.915	637.6
552.34	627.8
552.743	627.6
553.146	632.2
553.571	631.6
553.975	651.6
554.399	625.2
554.803	678.2
555.207	634.2
555.632	625.2
556.036	631
556.461	617.8
556.865	626.8
557.268	627.8
557.694	632
558.098	637.4
558.502	637.6
558.927	629.2
559.332	632.6
559.736	639.8
560.162	631
560.566	626.4
560.992	630.6
561.396	636.4
561.801	622.6
562.227	634.8
562.631	630.2
563.036	627
563.462	634
563.867	625.4
564.272	619.8
564.698	633.4
565.103	616.4
565.508	644.6
565.935	631.2
566.34	624.6
566.745	642.6
567.172	624.8
567.577	649.8
567.982	633.2
568.409	629
568.815	615.6
569.22	619.4
569.626	627
570.053	613.4
570.459	622.2
570.865	629.8
571.292	624.2
571.698	623.6
572.104	607
572.531	612.6
572.937	622
573.343	617
573.75	613.4
574.177	628.6
574.583	623.6
574.99	615
575.396	624.2
575.824	611.4
576.231	624.4
576.637	609.6
577.065	648.4
577.472	610.8
577.879	610
578.286	633.6
578.714	609.6
579.121	603.2
579.528	621.2
579.935	614.2
580.364	601.4
580.771	596
581.178	603.4
581.585	621
582.014	615
582.421	609.4
582.829	603.6
583.236	620.6
583.644	610.4
584.073	606.4
584.481	613.4
584.889	604.4
585.296	616
585.726	617.8
586.134	608
586.542	606.4
586.95	639.8
587.358	597.6
587.787	609.4
588.196	621.8
588.604	608.4
589.012	609.4
589.421	608.2
589.851	609.2
590.259	611.6
590.668	606.6
591.076	642.8
591.485	605.6
591.894	611.4
592.324	619
592.733	620
593.142	604
593.551	606.6
593.96	614
594.369	606.8
594.8	607
595.209	613.4
595.618	593.8
596.028	611.4
596.437	604.4
596.847	614.4
597.256	611.4
597.687	612.8
598.097	609.4
598.507	603.6
598.917	605.8
599.327	621.8
599.736	606
600.146	614
600.556	609.4
600.988	625.4
601.398	614.6
601.808	619.4
602.219	596.8
602.629	607.4
603.039	608.8
603.45	637.6
603.86	613.6
604.271	622.8
604.703	609.6
605.114	608.2
605.525	615.6
605.935	620
606.346	638.4
606.757	619
607.168	609.2
607.579	604.8
607.99	626
608.402	620.6
608.813	617.2
609.224	599.2
609.636	599
610.047	604
610.48	609.4
610.892	620.6
611.303	621.8
611.715	612
612.127	599.8
612.539	613.8
612.95	611.4
613.362	601
613.774	599.2
614.186	600.8
614.599	604.4
615.011	618.8
615.423	614.4
615.835	609.8
616.248	606.2
616.66	619.8
617.073	609.8
617.485	611.2
617.898	624.6
618.311	619.2
618.723	614.2
619.136	638
619.549	628.8
619.962	638.4
620.375	605.8
620.788	617.6
621.201	615.4
621.614	619.2
622.028	615.6
622.441	622.2
622.854	630.6
623.268	610.2
623.681	622.2
624.095	618.8
624.509	624.6
624.922	618
625.336	608.4
625.728	619.2
626.142	625.8
626.556	627.4
626.97	629
627.384	611.8
627.799	599.8
628.213	621.4
628.627	621
629.041	609.4
629.456	612
629.87	614.2
630.285	619.6
630.699	621
631.093	618.2
631.507	618.6
631.922	620.2
632.337	626
632.752	605.8
633.167	617
633.582	609.4
633.997	611.2
634.412	607.4
634.806	615.8
635.221	607.6
635.637	617.4
636.052	605.2
636.468	621
636.883	632.4
637.299	611
637.715	594.8
638.109	617.4
638.525	608.4
638.941	622
639.357	619.2
639.773	624.6
640.189	605
640.584	604.6
641	609
641.416	598.8
641.832	607.2
642.249	601.4
642.665	611.6
643.06	611.6
643.477	616.4
643.894	604.8
644.31	605
644.727	615.4
645.123	615.4
645.54	604
645.957	606.6
646.374	614.4
646.77	604.8
647.187	633.2
647.604	606.6
648.021	586.2
648.439	599
648.835	603.6
649.252	602.8
649.67	606.4
650.088	601.2
650.484	612.6
650.902	614.6
651.32	614.2
651.738	602.4
652.134	607.2
652.552	620.8
652.971	605.2
653.389	607.6
653.786	614.6
654.204	628.8
654.622	591.2
655.019	600.2
655.438	610.8
655.857	606.4
656.275	607
656.673	597.6
657.091	612.8
657.51	599.6
657.908	613.6
658.327	625.6
658.746	586.6
659.144	604
659.563	614.4
659.982	604.6
660.38	599.8
660.8	599.8
661.219	605.6
661.617	604.8
662.037	600.6
662.457	616.8
662.855	592.2
663.275	632.2
663.695	600
664.094	602.4
664.514	608.4
664.934	587.4
665.333	600.8
665.753	602.6
666.152	584.8
666.572	591.8
666.993	616.8
667.392	597.4
667.812	598.4
668.212	600
668.632	607.4
669.053	594.2
669.453	601.8
669.874	599.8
670.273	611.4
670.694	588.2
671.116	612
671.515	603
671.937	601.2
672.337	595.8
672.758	593.6
673.158	609.4
673.58	587.6
673.98	599
674.402	612.8
674.824	588.8
675.224	591.2
675.646	586.8
676.047	591.2
676.469	601.4
676.869	592.6
677.292	593
677.693	589.2
678.115	585.2
678.516	604
678.939	597.6
679.34	595
679.762	600.8
680.164	590.4
680.586	586
680.988	590.2
681.411	607.4
681.812	594.4
682.236	589.2
682.637	584.8
683.061	586.2
683.462	594.8
683.864	593.4
684.288	588
684.69	583.4
685.114	599.2
685.516	606.6
685.94	587.8
686.342	599
686.766	590.4
687.168	593.6
687.571	612.2
687.995	597.8
688.398	584.2
688.822	586.6
689.225	612.8
689.628	604.6
690.052	593.4
690.456	592.4
690.88	603.4
691.284	582.8
691.687	598.2
692.112	588.8
692.515	589.2
692.919	603.8
693.344	587.8
693.747	592.6
694.173	582.2
694.577	604.8
694.98	594
695.406	593.6
695.81	594.6
696.214	602.4
696.64	600.6
697.044	600.4
697.448	605
697.874	582.6
698.279	592.6
698.684	586
699.11	584.8
699.514	594.4
699.919	579.2
700.324	586.4
700.75	596.6
701.156	591.2
701.561	605.2
701.987	597.8
702.393	604
702.798	599.6
703.203	592.4
703.63	591.2
704.036	587.8
704.442	592.2
704.847	585.8
705.274	600
705.68	591.8
706.086	598.4
706.492	571.8
706.92	578.2
707.326	594.8
707.732	586.4
708.139	583.8
708.545	581.8
708.973	577.8
709.38	590.6
709.786	585.4
710.193	607.8
710.6	590.2
711.028	587
711.435	590
711.842	583
712.249	585
712.656	590.6
713.064	604.4
713.492	570
713.9	585.6
714.307	585.2
714.715	582.4
715.123	590.4
715.53	589
715.938	603.2
716.367	584.8
716.775	592.6
717.184	581.8
717.592	581.2
718	599
718.408	622.2
718.816	631
719.225	590.6
719.633	586.8
720.042	578
720.472	593.2
720.881	611.2
721.29	592.2
721.699	583.6
722.108	591.4
722.517	594
722.926	585
723.335	601.8
723.744	590
724.154	591.6
724.563	595
724.973	588.2
725.382	591
725.792	590.4
726.202	579.2
726.612	614
727.022	597
727.432	586.2
779.813	586.6
780.223	637
780.634	593.4
781.044	577
781.454	592.8
781.865	592.2
782.276	580.2
782.686	596.4
783.097	587.6
783.508	584.2
783.919	589.8
784.33	599.6
784.741	600.2
785.152	590
785.563	578
785.974	581.4
786.386	601.2
786.776	585.6
787.188	583
787.599	582
788.011	598.6
788.423	592.6
788.835	584.8
789.247	578.2
789.659	576
790.071	578.4
790.483	620
790.874	586
791.286	593.4
791.699	579.2
792.111	591.8
792.524	586.6
792.937	583.8
793.349	577.6
793.741	578.8
794.154	578
794.567	599.2
794.98	587.8
795.393	569.8
795.785	589
796.198	581.2
796.612	585.4
797.026	585.6
797.439	570.2
797.831	588.2
798.245	568.2
798.659	584
799.073	585.8
799.487	578.6
799.88	582.2
800.294	591.4
800.708	581.6
801.123	586.6
801.516	614
801.93	587.4
802.345	578.6
802.76	579.4
803.153	592.4
803.568	598.4
803.983	590.2
804.377	588.8
804.792	578.4
805.207	571
805.601	584.2
806.016	617
806.432	581.4
806.826	613.6
807.242	596.8
807.658	578
808.052	582.6
808.468	580
808.884	578.6
809.279	593.8
809.695	597
810.111	605.4
810.506	588.6
810.922	606
811.339	582.8
811.734	597.4
812.151	580.6
812.546	579.4
812.963	579.8
813.38	594.2
813.776	592.2
814.193	609
814.589	579.6
815.006	580.2
815.402	579.8
815.82	587.2
816.237	584.4
816.633	591.6
817.051	573.8
817.448	584
817.866	577.4
818.262	606
818.68	582
819.077	583.8
819.495	582.8
819.892	618.4
820.311	579.4
820.708	583.6
821.127	586.8
821.524	591.4
821.943	587.2
822.34	605.2
822.759	574.4
823.157	580
823.576	597.8
823.974	589.6
824.393	624.2
824.791	582.8
825.189	572.6
825.609	576.6
826.007	573.8
826.427	566.2
826.826	580.2
827.246	588
827.644	568
828.043	584.8
828.463	578.4
828.862	591.8
829.261	588.4
829.682	574.8
830.081	587
830.502	578.8
830.901	580.2
831.301	597
831.722	578.2
832.121	585.6
832.521	573.2
832.943	583.4
833.342	583.4
833.742	578.2
834.164	579.8
834.564	581.2
834.965	585.8
835.386	583.2
835.787	586.8
836.188	586.4
836.588	584.4
837.01	583.2
837.411	577
837.812	588.8
838.213	591.4
838.636	578
839.037	652
839.438	591.4
839.84	587.6
840.263	582
840.664	585
841.066	577.2
841.468	581.6
841.891	586
842.293	591.4
842.695	596.8
843.098	592
843.5	580.4
843.902	585.6
844.326	590.6
844.729	583.2
845.131	592.2
845.534	578.4
845.937	592.6
846.34	605.2
846.764	576.4
847.167	585.6
847.571	575.6
847.974	583.8
848.377	581.8
848.781	630.8
849.184	586
849.588	576.8
849.992	578
850.396	584.8
850.821	600.4
851.225	576.4
851.63	579.6
852.034	596.6
852.438	582.4
852.843	653.4
853.247	573.8
853.652	582.6
854.057	598.4
854.462	585.8
854.867	581
855.272	611.2
855.677	585.6
856.082	578
856.487	575.2
856.893	586.6
857.298	583.4
857.704	574.4
858.11	587.4
858.516	586.8
858.922	579
859.328	595
859.734	585
860.14	591.4
860.525	579.4
860.931	583.2
861.338	582.2
861.745	579.8
862.151	589.2
862.558	584.2
862.965	575.6
863.372	574
863.779	578.4
864.186	601.8
864.572	586
864.98	596.4
865.387	616
865.795	573.6
866.203	586.6
866.61	569.4
867.018	589.2
867.405	584.6
867.813	579.4
868.221	575.8
868.63	578.4
869.038	587.8
869.425	617.8
869.834	586.8
870.243	575
870.652	581.6
871.039	582.8
871.448	580.4
871.857	591.2
872.266	585.8
872.654	585.6
873.064	589.4
873.473	594.8
873.883	581
874.271	570.4
874.681	586
875.091	566
875.48	590.4
875.89	592.2
876.3	583.6
876.689	573.6
877.1	578.4
877.51	580
877.9	600.2
878.31	579.8
878.721	616.2
879.111	586.6
879.522	578.4
879.933	571.8
880.323	564.4
880.734	575
881.125	592
881.536	580.6
881.948	578.6
882.338	575.8
882.75	587.8
883.141	573.2
883.553	579.2
883.944	601.6
884.356	587
884.769	578.8
885.16	580
885.573	585.6
885.964	578.8
886.377	577.8
886.768	567.6
887.181	572
887.573	571
887.987	582
888.378	588.8
888.792	577.8
889.184	623.2
889.598	572.8
889.99	579
890.383	578
890.797	565
891.19	590.8
891.604	577.8
891.997	572.6
892.411	575
892.805	571
893.198	561
893.613	571.4
894.006	570.4
894.421	581.2
894.815	578.8
895.209	572.2
895.624	612.2
896.018	598.2
896.412	574
896.828	583.4
897.222	585.2
897.617	578.4
898.033	596.6
898.427	583.8
898.822	585.2
899.239	571.6
899.634	576.8
900.029	599.8
900.424	570.8
900.841	571
901.236	595
901.632	586.4
902.027	634.6
902.445	595.8
902.841	575.6
903.237	579.2
903.633	583.2
904.05	587.4
904.447	580.6
904.843	591.8
905.24	581.8
905.636	568
906.033	581.8
906.451	589.8
906.848	562
907.246	575.4
907.643	585
908.04	581.2
908.438	597
908.835	591.8
909.254	578.6
909.652	579.6
910.05	587.6
910.448	577
910.846	586.8
911.244	577.2
911.643	580.6
912.041	589.6
912.44	598.4
912.839	575
913.237	582.8
913.636	572.8
914.035	584.2
914.434	580.8
914.834	585.6
915.233	582
915.633	584
916.032	574.8
916.432	572.8
916.832	598.2
917.232	582.8
917.632	573.8
918.032	576.8
918.432	572
918.833	573.8
919.233	574.8
919.634	560.2
920.035	579.2
920.436	578.6
920.837	574.4
921.238	572.8
921.639	565.6
922.019	581.6
922.42	576.6
922.822	584
923.224	580
923.625	579.6
924.027	585.2
924.429	603.2
924.81	589
925.212	592.8
925.615	581
926.017	582
926.42	587
926.801	579.8
927.204	579.6
927.607	591.8
928.01	595.6
928.413	585.8
928.795	572.6
929.199	584.6
929.602	576.8
930.006	579
930.388	581.8
930.792	581.4
931.196	583.6
931.579	607.6
931.983	571.4
932.388	628.4
932.771	578.2
933.176	572
933.58	588.2
933.964	591.6
934.369	570
934.774	584
935.158	572.8
935.563	582.4
935.947	586.6
936.353	590
936.759	586.2
937.143	591
937.549	574.4
937.934	593.4
938.34	593.4
938.746	581.4
939.131	578.4
939.538	581
939.923	582.4
940.33	575.6
940.716	578
941.123	578.6
941.508	593.4
941.916	600.2
942.302	580.2
942.709	569.4
943.096	576.6
943.503	580.4
943.89	570.2
944.298	567.8
944.685	607.8
945.072	572
945.48	590.4
945.867	569.4
946.276	572.6
946.663	599.6
947.051	592.6
947.46	587.2
947.848	576.4
948.257	570.2
948.645	573.8
949.033	573.6
949.443	568
949.831	613.4
950.22	559.4
950.63	588.4
951.018	609.2
951.407	572.2
951.796	568.2
952.207	574.6
952.596	587
952.985	572.8
953.375	619.4
953.786	577.4
954.176	563.8
954.566	581.2
954.956	568.2
955.367	580
955.758	600.6
956.148	567.4
956.539	585.8
956.929	566.6
957.341	572.6
957.732	568.8
958.123	585.6
958.515	561.6
958.906	581.8
959.297	580
959.689	578.8
960.102	578.4
960.494	588
960.886	574.6
961.278	575.8
961.67	604.4
962.062	611.8
962.455	581.6
962.847	577.4
963.24	577
963.633	576
964.026	570.6
964.419	579.8
964.812	590.2
965.206	570.8
965.599	587
965.993	573.4
966.386	579.8
966.78	590.8
967.174	587.2
967.569	579.8
967.963	572.2
968.357	572.6
968.752	566
969.146	571
969.541	573.4
969.936	578
970.331	582.2
970.705	579
971.1	572.2
971.496	568
971.892	571.2
972.287	576.6
972.683	575.4
973.079	577.4
973.454	587.4
973.85	573.2
974.247	576
974.643	597.6
975.04	572.6
975.415	573.8
975.812	578
976.209	587.8
976.607	566
976.982	596.6
977.38	587
977.778	579
978.175	569.4
978.552	580
978.95	575.4
979.348	584.4
979.725	618.2
980.123	577.2
980.522	577.2
980.899	575.6
981.298	566.4
981.697	572
982.075	566
982.474	566.8
982.852	574.6
983.251	580.4
983.651	577
984.029	580.6
984.429	573.4
984.808	555.6
985.208	565.6
985.609	577.6
985.987	561.4
986.388	562.2
986.768	584
987.168	573.8
987.548	584.8
987.949	578.2
988.329	587.8
988.731	555.6
989.111	577.4
989.491	576.6
989.893	580
990.273	585.6
990.676	566.4
991.057	574.8
991.459	572.4
991.84	571.2
992.221	572.4
992.624	594.8
993.006	573.6
993.388	577.4
993.791	583.6
994.173	587.8
994.576	606.4
994.959	573.6
995.341	577.4
995.724	575.2
996.128	577.8
996.511	587.4
996.894	580.2
997.298	576.6
997.681	578.4
998.065	573.4
998.448	569
998.854	590.2
999.237	568.6
999.621	582.6
1000.01	593
1000.39	584.4
1000.8	576.4
1001.18	576.4
1001.56	574
1001.95	582.2
1002.33	583.4
1002.72	583.8
1003.13	574.8
1003.51	570.6
1003.9	576
1004.28	589.8
1004.67	571.2
1005.06	574.4
1005.44	609.4
1005.83	569.4
1006.21	576
1006.6	575.6
1006.99	582.4
1007.37	579.2
1007.76	576.6
1060.12	569.6
1060.51	575.6
1060.89	585.8
1061.28	584.2
1061.67	580.6
1062.06	587
1062.45	576
1062.83	571.2
1063.22	576.6
1063.61	615.2
1064	586.4
1064.39	575
1064.78	574
1065.14	586.2
1065.53	574.4
1065.92	579
1066.31	570.2
1066.7	589
1067.09	587.4
1067.46	588
1067.85	570
1068.24	571.2
1068.63	580
1069.02	582.6
1069.39	581.8
1069.78	571
1070.17	571.6
1070.57	561.6
1070.93	569.8
1071.33	568
1071.72	582.8
1072.11	575.6
1072.48	577.6
1072.87	581
1073.26	577
1073.64	578.4
1074.03	569.4
1074.4	567.4
1074.79	572.4
1075.19	577.4
1075.56	575.8
1075.95	567
1076.34	575
1076.72	581.6
1077.11	584
1077.48	593.8
1077.88	578.2
1078.25	577.2
1078.64	593
1079.02	575
1079.41	586.8
1079.78	581.8
1080.18	569.6
1080.55	639.6
1080.95	570.4
1081.32	569.2
1081.72	580.6
1082.09	585.2
1082.49	573.4
1082.86	578.4
1083.24	571
1083.63	566.8
1084.01	574.2
1084.38	580.6
1084.78	569.6
1085.16	574
1085.55	588.4
1085.93	593.8
1086.31	565.8
1086.7	601.8
1087.08	575.8
1087.46	572
1087.83	559.2
1088.23	582
1088.61	574
1088.99	580.8
1089.36	574.6
1089.76	574.4
1090.14	570.4
1090.52	575
1090.9	569.4
1091.27	587.4
1091.67	598.4
1092.05	581.4
1092.43	577
1092.81	586.8
1093.19	580.4
1093.57	572
1093.95	574
1094.35	582.4
1094.73	581
1095.11	568
1095.49	574.4
1095.87	570.8
1096.25	584.2
1096.63	583.6
1097.01	564.2
1097.39	573
1097.77	567.8
1098.15	578.2
1098.53	565.2
1098.91	574.2
1099.29	566.8
1099.68	589.6
1100.06	582
1100.44	576.4
1100.82	574.2
1101.18	573.6
1101.56	573.6
1101.95	565.2
1102.33	566
1102.71	573.6
1103.1	567
1103.48	558.8
1103.86	562
1104.22	574.2
1104.61	566.8
1104.99	570.6
1105.38	566.6
1105.76	583.6
1106.12	579.2
1106.51	602.6
1106.89	591.6
1107.26	577.6
1107.64	581.8
1108.03	567.8
1108.41	581.6
1108.78	571.2
1109.16	581.6
1109.55	584.4
1109.91	563.4
1110.3	559.4
1110.69	586.6
1111.05	576.2
1111.44	568.4
1111.8	576
1112.19	574.4
1112.58	579.8
1112.94	572.6
1113.33	560.6
1113.7	566.8
1114.09	566.8
1114.45	569.2
1114.84	575.2
1115.21	579.2
1115.6	572
1115.96	577.8
1116.35	578.6
1116.72	573
1117.11	582.4
1117.48	570.6
1117.85	575.4
1118.24	589.4
1118.6	580.6
1118.99	565.2
1119.36	572
1119.73	568.6
1120.12	572.6
1120.49	568.2
1120.86	574.6
1121.25	570.4
1121.62	565
1121.99	565.8
1122.38	583.2
1122.76	574
1123.13	560.4
1123.5	574.2
1123.89	578.6
1124.26	565.2
1124.63	570.6
1125	568.6
1125.4	559.2
1125.77	560.8
1126.14	560.6
1126.51	563.8
1126.88	572.2
1127.26	567.6
1127.63	557
1128.02	568.4
1128.4	562.8
1128.77	566.6
1129.14	578.8
1129.52	566.8
1129.89	577
1130.26	566.8
1130.64	567.6
1131.01	563
