#lambda/nm	C1
208.295	503.2
208.67	464.4
209.045	422.8
209.419	429
209.794	612.2
210.169	592.4
210.544	720
210.919	625.8
211.295	609.4
211.67	618.4
212.045	603
212.421	614
212.796	639
213.172	603.6
213.547	610
213.923	607.6
214.299	615.6
214.675	626
215.051	621
215.427	621.4
215.803	628.2
216.179	618.6
216.555	605.4
216.932	622.8
217.308	611.8
217.684	611.6
218.061	625.8
218.438	616.6
218.814	600.2
219.191	627.4
219.568	611.2
219.945	608.8
220.322	618
220.699	611.8
221.076	622.2
221.453	623
221.83	614.4
222.208	610.2
222.585	609
222.962	608.6
223.34	616.2
223.717	608.6
224.095	614.4
224.473	604.6
224.851	613.2
225.229	603.4
225.607	631.4
225.985	606
226.363	624
226.741	608.2
227.119	612
227.497	629
227.876	592
228.254	621.4
228.633	618
229.011	620.2
229.39	627.4
229.769	609
230.148	621.6
230.527	639.8
230.905	613.2
231.284	621.2
231.664	603
232.043	625.6
232.422	629.4
232.801	605.4
233.181	621.6
233.56	616.4
233.94	611
234.319	602.4
234.699	609.4
235.079	648.6
235.458	653.8
235.838	631.6
236.218	606.2
236.598	603
236.978	605.4
237.358	608
237.738	608.4
238.119	618.2
238.499	600.2
238.88	613.4
239.26	622.2
239.641	605.4
240.021	615.8
240.402	608.6
240.783	606.4
241.163	615.6
241.544	616.4
241.925	611.8
242.306	634.4
242.687	615.4
243.069	612.2
243.45	621.8
243.831	608.4
244.212	612.6
244.594	642.2
244.975	637.8
245.357	611
245.739	609.4
246.12	619.6
246.502	625.4
246.884	613.6
247.266	608.8
247.648	617
248.03	628.8
248.412	610.8
248.794	622
249.176	611
249.559	628
249.941	612.2
250.323	596.4
250.706	601.8
251.089	617
251.471	610
251.854	611.8
252.237	615.8
252.62	625.6
253.002	613.2
253.385	615.2
253.769	633.8
254.152	615.8
254.535	623.2
254.918	606.8
255.301	603.6
255.685	612.8
256.068	604.8
256.452	633.6
256.835	621
257.219	623.2
257.603	623.8
257.986	609.8
258.37	617.2
258.754	600
259.138	622.6
259.522	625
259.906	608
260.29	619.2
260.675	612.4
261.059	613.2
261.443	613.8
261.828	617.2
262.212	611.2
262.597	605.8
262.981	605
263.366	620.4
263.751	611.4
264.136	607.8
264.521	603.8
264.906	604.8
265.291	619.2
265.676	613.2
266.061	616.4
266.446	638
266.831	617.2
267.217	630.8
267.602	615.2
267.987	627.8
268.373	614.4
268.759	617.6
269.144	625.4
269.53	614.6
269.916	606.2
270.302	610
270.688	627.6
271.074	606.4
271.46	625
271.846	648.2
272.232	619.6
272.618	612.2
273.004	611
273.391	627.2
273.777	620.2
274.164	619.4
274.55	624.2
274.937	622.4
275.324	604.6
275.71	615.6
276.097	626
276.484	607.8
276.871	623.6
277.258	628
277.645	595.6
278.032	612.4
278.419	612
278.807	617.6
279.194	604.2
279.581	603.8
279.969	619.6
280.356	621
280.744	620
281.131	634.4
281.519	624.6
281.907	603.6
282.295	608
282.682	620.4
283.07	613.4
283.458	621
283.846	623.2
284.235	626.6
284.623	618
285.011	605.6
285.399	617
285.788	613
286.176	603.8
286.565	625
286.953	617
287.342	607.4
287.731	606.2
288.119	615.8
288.508	609.4
288.897	616.4
289.286	599.2
289.675	604
290.064	631.4
290.453	607.2
290.821	615.4
291.21	624.6
291.599	606.2
291.989	611
292.378	619.8
292.768	629
293.157	620.2
293.547	630.2
293.936	616.2
294.326	606.2
294.716	615.6
295.106	611.6
295.496	621
295.886	617.2
296.276	616
296.666	607.2
297.056	607.8
297.446	603.4
297.836	630.8
298.227	618.2
298.617	618.4
299.008	627.4
299.398	614.6
299.789	601.8
300.179	618
300.57	627.6
300.961	602.8
301.352	612.8
301.742	616
302.133	608.2
302.524	614.2
302.915	615.8
303.307	600.2
303.698	631
304.089	619.8
304.48	607.4
304.872	614.8
305.263	612.8
305.655	605.8
306.046	619
306.438	614.2
306.829	605.2
307.221	632
307.613	619.2
308.005	625.6
308.397	627.2
308.789	647
309.181	638.6
309.573	624
309.965	624.8
310.357	615.8
310.749	626.4
311.142	606
311.534	612.4
311.926	615
312.319	626.2
312.711	604
313.104	629.2
313.497	611.8
313.889	653.4
314.282	636.6
314.675	645.6
315.068	623.6
315.461	625.8
315.854	642.8
316.247	624
316.64	615.6
317.033	617.8
317.405	620.6
317.798	613.8
318.192	612
318.585	608.4
318.979	620.6
319.372	613.4
319.766	615.8
320.16	631.8
320.553	633.8
320.947	635.8
321.341	614.6
321.735	612
322.129	606.6
322.523	642.4
322.917	609.8
323.311	627
323.705	617.8
324.099	621.2
324.494	633
324.888	624
325.282	615.4
325.677	628.8
326.071	621.2
326.466	623.8
326.861	621.4
327.255	630
327.65	632.2
328.045	630.4
328.44	619.2
328.835	618.4
329.23	610.4
329.625	643.8
330.02	608.2
330.415	632.8
330.81	613
331.206	622.4
331.601	608.2
331.996	623.6
332.37	627.4
332.766	611.6
333.161	638
333.557	612.2
333.953	613.6
334.348	926.2
334.744	611.4
335.14	622.8
335.536	611.6
335.932	629.2
336.328	616
336.724	622
337.12	613.8
337.516	619
337.913	619.2
338.309	624.4
338.705	613
339.102	631.8
339.498	613.6
339.895	620.8
340.291	607.2
340.688	621.4
341.085	605.4
341.481	612.2
341.878	603.6
342.275	636.2
342.672	605.6
343.069	600.6
343.466	591.6
343.842	621
344.239	607.8
344.636	609.6
345.033	607
345.431	598.6
345.828	609.4
346.225	610.6
346.623	642.8
347.02	617.6
347.418	621.2
347.816	630.6
348.213	607
348.611	614
349.009	606
349.407	625.6
349.805	601.4
350.203	606.2
350.601	626.2
350.999	609
351.397	680
351.795	618.6
352.193	611
352.57	619
352.969	618.2
353.367	607.4
353.766	609
354.164	613.2
354.563	632.8
354.961	618.8
355.36	606.4
355.759	607.2
356.158	599.8
356.557	601.8
356.956	596.6
357.355	603
357.754	615.8
358.153	610
358.552	640.2
358.951	615.6
359.35	626
359.75	609.8
360.149	600.2
360.527	603.8
360.926	608
361.326	617.2
361.726	605.4
362.125	596.2
362.525	628.6
362.925	610.6
363.325	610.6
363.724	614.6
364.124	601.4
364.524	603
364.924	605.2
365.324	625.2
365.725	594.4
366.125	620
366.525	605.2
366.904	610.6
367.304	593.8
367.705	627.2
368.105	623.6
368.506	610.8
368.906	611
369.307	603.6
369.708	615.2
370.108	590.6
370.509	623
370.91	600.4
371.311	609.6
371.712	610.2
372.113	605.2
372.514	600.2
372.894	605.2
373.295	610.8
373.696	615.8
374.097	608.6
374.499	633.6
374.9	617.4
375.301	599.4
375.703	618.2
376.105	599.6
376.506	623.8
376.908	615.2
377.309	597.6
377.711	604.4
378.113	598.2
378.493	601.4
378.895	596.2
379.297	606.2
379.699	594.4
380.102	605
380.504	602.4
380.906	601.8
381.308	622.4
381.71	601.2
382.113	608.4
382.515	604
382.918	606.2
383.299	605.8
383.701	611
384.104	608.8
384.507	582.8
384.909	604.4
385.312	592.8
385.715	590.2
386.118	597.2
386.521	593.6
386.924	614.2
387.327	601
387.709	595.8
388.112	589.2
388.515	611.2
388.918	604.6
389.322	610.8
389.725	599.8
390.129	616.6
390.532	611.4
390.936	610.4
391.339	601.6
391.743	613.2
392.125	599
392.529	613.6
392.933	619
393.337	614
393.74	605.2
394.144	602.2
394.548	601.8
394.953	609
395.357	609.4
395.761	602
396.144	607.4
396.548	606.4
396.952	600.6
397.357	608.4
397.761	604.8
398.166	602.8
398.57	604.4
398.975	601.4
399.379	606.6
399.763	655.2
400.168	602.2
400.572	596
400.977	602.4
401.382	617.4
401.787	616.6
402.192	621
402.597	622.6
403.002	594.8
403.386	620.2
403.791	626
404.197	599.4
404.602	613.4
405.007	606.4
405.413	607.4
405.818	608.6
406.224	596.4
406.608	608.2
407.014	599
407.42	620.2
407.825	600.4
408.231	612
408.637	607.4
409.043	619.6
409.449	601
409.834	602.8
410.24	606.4
410.646	611.4
411.052	618.2
411.458	610
411.865	607
412.271	614.6
412.677	609.2
413.062	610
413.469	597.2
413.875	632.8
414.282	619.4
414.689	616
415.095	609.8
415.502	601.6
415.888	616.4
416.294	593.2
416.701	646.6
417.108	603.6
417.515	617.4
417.923	599.4
418.33	627.6
418.715	613
419.123	614
419.53	614.2
419.937	615.8
420.345	625
420.752	607
421.16	628.8
421.546	605.2
421.953	617.2
422.361	595.2
422.769	606.2
423.177	598.4
423.585	629.2
423.992	623.8
424.379	624.6
424.787	616
425.195	627.6
425.603	603.6
426.011	619.4
426.419	627.4
426.806	613.6
427.214	606.4
427.623	617.6
428.031	629.8
428.44	614.6
428.848	630
429.235	628.8
429.644	616.6
430.053	611
430.461	625.2
430.87	636.8
431.279	624.4
431.666	610.2
432.075	617.4
432.484	619
432.893	611
433.302	630.2
433.711	652.8
434.099	621.6
434.508	606.6
434.918	610.6
435.327	630.4
435.737	613.2
436.125	616.8
436.534	617.8
436.944	611.6
437.353	622.2
437.763	637.6
438.173	607.8
438.561	625.2
438.971	604.2
439.381	625
439.791	621.4
440.201	607
440.589	634.6
440.999	631.4
441.409	631.8
441.819	623.6
442.23	641
442.619	648.4
443.029	638
443.439	644
443.85	654.2
444.26	670.8
444.649	658.6
445.06	656
445.471	643.2
445.881	655.2
446.292	676.8
446.682	689.4
447.092	645.4
447.503	712.6
447.914	676
448.325	674.4
448.715	666.6
449.126	670.6
449.537	671
449.948	678
450.338	681.2
450.75	687.4
451.161	682.6
451.572	695.8
451.984	668
452.374	665.8
452.786	682.2
453.197	682.4
453.609	684.2
453.999	670.2
454.411	669.6
454.823	697.4
455.235	694.4
455.647	677.8
456.037	683
456.449	670.4
456.862	692.4
457.274	685.6
457.665	673.2
458.077	688.2
458.489	719
458.902	690.6
459.293	689.6
459.705	691.4
460.118	680.8
460.53	690
460.921	687.2
461.334	695.4
461.747	689
462.16	704.2
462.551	707.6
462.964	706.6
463.377	676.6
463.79	684.8
464.182	711.4
464.595	684.6
465.008	692.8
465.421	699
465.813	687.6
466.226	692.6
466.64	698.4
467.053	740.4
467.445	708.6
467.859	717.2
468.272	700.6
468.686	717
469.078	705
469.492	687.2
469.906	693.4
470.298	709.4
470.712	692.2
471.126	748.6
471.54	689
471.933	694
472.347	699.2
472.761	694.2
473.175	691.8
473.568	695.8
473.982	683.6
474.397	696
474.79	697.6
475.204	708.6
475.619	687.4
476.033	699.8
476.426	696.4
476.841	690.6
477.256	720.4
477.649	695.6
478.064	691.4
478.479	683.2
478.872	686.6
479.287	682.6
479.702	693.8
480.118	696.6
480.511	691.2
480.927	700.8
481.342	693.8
481.736	695.4
482.151	683.4
482.566	697.4
482.96	707.2
483.376	707
483.792	693
484.186	711.4
484.602	691.4
485.017	696.2
485.412	693.6
485.827	700.8
486.243	690.6
486.638	716.8
487.054	698.8
487.47	711.4
487.865	686.8
488.281	688.2
488.697	680.8
489.092	691
489.508	673.8
489.925	698.2
490.32	679.6
490.736	699.6
491.153	695
491.548	692.2
491.964	701.2
492.381	674.2
492.776	692.2
493.193	686.2
493.61	703
494.006	694
494.422	696.6
494.84	682.8
495.235	696.4
495.652	676
496.069	683.4
496.465	671.4
496.883	684.6
497.3	710
497.696	679.4
498.113	680
498.509	669.8
498.927	669.4
499.344	673
499.741	671.2
500.158	687
500.576	672.8
500.973	673.4
501.39	663.4
501.787	666.4
502.205	680
502.623	669.6
503.02	670.4
503.438	666
503.856	670.8
504.253	672.2
504.671	672.8
505.068	662.2
505.486	665.6
505.905	679
506.302	670.4
506.72	676.2
507.118	665.4
507.536	674
507.955	666
508.352	667.2
508.771	670.8
509.169	674
509.587	664.4
510.006	671.6
510.404	658
510.823	659.6
511.221	662
511.64	652
512.038	679.6
512.457	663.4
512.877	658.8
513.275	660.2
513.694	662.4
514.092	657.2
514.512	668.6
514.91	676.2
515.33	668.6
515.749	657.6
516.148	663.4
516.568	651.4
516.966	655.4
517.386	648.8
517.785	663.6
518.205	649.6
518.603	651.4
519.024	645.6
519.444	656.2
519.843	660.4
520.263	662
520.662	656
521.082	644.8
521.481	659.6
521.902	648.6
522.301	647.2
522.722	655.6
523.121	648.2
523.542	647.2
523.963	642.4
524.362	653.6
524.783	650.8
525.183	655.6
525.604	649.4
526.003	648
526.425	640.8
526.824	646.2
527.246	656.8
527.646	649.4
528.067	650
528.467	641.6
528.888	654.6
529.289	638.4
529.71	640.6
530.11	625.6
530.532	632.8
530.932	637.8
531.354	631.2
531.755	668
532.176	642
532.577	632.8
532.999	635.8
533.4	636.4
533.822	639.4
534.223	632.6
534.645	630.8
535.046	633.4
535.468	625.4
535.869	646.8
536.292	623.8
536.693	668.8
537.115	628
537.516	620.4
537.939	629.8
538.34	646.4
538.742	640.2
539.165	625.8
539.566	625.4
539.989	628
540.391	632.4
540.814	637.2
541.216	631.6
541.639	625.8
542.041	631.6
542.464	629
542.866	630.2
543.268	619.4
543.691	643.8
544.093	635
544.517	649.6
544.919	623
545.343	659.6
545.745	614
546.147	639
546.571	631.4
546.974	622.6
547.398	625.8
547.8	654.2
548.224	633
548.627	617.6
549.03	628
549.454	620.6
549.857	618.6
550.281	617.6
550.684	624.4
551.087	633.4
551.512	618.8
551.915	618.6
552.34	623.2
552.743	618
553.146	624.2
553.571	614
553.975	656.6
554.399	621.2
554.803	682.8
555.207	622
555.632	611.4
556.036	627.2
556.461	610.6
556.865	630.6
557.268	621.6
557.694	621
558.098	626
558.502	631.4
558.927	608.8
559.332	623.4
559.736	615.6
560.162	627.4
560.566	628.2
560.992	622.8
561.396	608.6
561.801	623.2
562.227	622.8
562.631	624.8
563.036	613.4
563.462	629.6
563.867	622
564.272	609
564.698	624.2
565.103	615.8
565.508	640
565.935	618.8
566.34	611.8
566.745	635
567.172	616.4
567.577	639.8
567.982	628.6
568.409	618
568.815	603.6
569.22	611.2
569.626	621.4
570.053	598
570.459	609.8
570.865	613.2
571.292	614.6
571.698	620.6
572.104	596.4
572.531	602.4
572.937	618.8
573.343	611.8
573.75	610.8
574.177	614.6
574.583	614.8
574.99	599.8
575.396	619.6
575.824	609.8
576.231	613.6
576.637	604.2
577.065	631.2
577.472	605
577.879	611.8
578.286	620.6
578.714	606.6
579.121	609.2
579.528	606.4
579.935	618.2
580.364	608.6
580.771	598
581.178	602
581.585	606.2
582.014	609.4
582.421	606.6
582.829	608.2
583.236	610.2
583.644	606.4
584.073	606
584.481	608.6
584.889	596.2
585.296	609.8
585.726	610.6
586.134	599.8
586.542	603.2
586.95	632
587.358	594.6
587.787	610.8
588.196	606.6
588.604	604.4
589.012	599.8
589.421	591.2
589.851	598.8
590.259	613.4
590.668	606.2
591.076	646.4
591.485	599.8
591.894	604.2
592.324	615
592.733	615.2
593.142	589.8
593.551	594.8
593.96	630.8
594.369	591.2
594.8	584.4
595.209	598.8
595.618	587.8
596.028	597
596.437	589.4
596.847	603
597.256	601.6
597.687	607.2
598.097	603
598.507	593.2
598.917	600
599.327	611
599.736	607.8
600.146	609
600.556	596
600.988	612.4
601.398	593.8
601.808	601.6
602.219	588.8
602.629	597.4
603.039	597.8
603.45	623.2
603.86	600.4
604.271	618.6
604.703	597
605.114	593.6
605.525	599.4
605.935	610.8
606.346	621.4
606.757	601
607.168	596.8
607.579	594.4
607.99	616.6
608.402	602.6
608.813	602.2
609.224	599
609.636	590.4
610.047	594.2
610.48	598
610.892	601.6
611.303	611.4
611.715	591.2
612.127	588.6
612.539	591
612.95	595.8
613.362	584.4
613.774	586.8
614.186	589.6
614.599	586.2
615.011	609.2
615.423	595
615.835	593.2
616.248	590
616.66	599.8
617.073	584
617.485	593.2
617.898	604.4
618.311	595.8
618.723	592.2
619.136	624.4
619.549	613.8
619.962	623.4
620.375	591.6
620.788	602
621.201	594.6
621.614	601.8
622.028	594.2
622.441	606.2
622.854	613
623.268	589.6
623.681	598
624.095	597.2
624.509	599.2
624.922	596
625.336	590.6
625.728	603.4
626.142	602
626.556	604.2
626.97	608.4
627.384	589.2
627.799	586.8
628.213	604.2
628.627	592.2
629.041	589.8
629.456	581
629.87	586.8
630.285	595.8
630.699	602.6
631.093	592.2
631.507	592.4
631.922	591
632.337	600.2
632.752	574.2
633.167	589.6
633.582	582.2
633.997	582.2
634.412	579.8
634.806	595.4
635.221	584.4
635.637	597.2
636.052	579
636.468	590.2
636.883	607.6
637.299	589.4
637.715	576.4
638.109	592.4
638.525	579.2
638.941	600
639.357	594.8
639.773	609.4
640.189	586.6
640.584	588.4
641	596.2
641.416	579.4
641.832	585.6
642.249	583.4
642.665	594.4
643.06	598.8
643.477	603.2
643.894	591.4
644.31	586.4
644.727	588.2
645.123	590.2
645.54	589
645.957	589.6
646.374	604.8
646.77	591.6
647.187	620.8
647.604	591.2
648.021	582.6
648.439	586.8
648.835	592.2
649.252	594.6
649.67	594.6
650.088	591
650.484	593
650.902	594.4
651.32	590
651.738	585.6
652.134	591.8
652.552	615.4
652.971	595.6
653.389	591.2
653.786	601.8
654.204	609.6
654.622	579.8
655.019	590.4
655.438	597.6
655.857	591
656.275	594
656.673	583.2
657.091	601
657.51	584
657.908	593.4
658.327	604.4
658.746	577
659.144	581.8
659.563	602.2
659.982	603.6
660.38	579.6
660.8	593.4
661.219	600
661.617	586.8
662.037	583.2
662.457	601.6
662.855	577.6
663.275	616.8
663.695	594
664.094	595.2
664.514	590.2
664.934	578.4
665.333	601
665.753	592.2
666.152	590.8
666.572	579.2
666.993	592.6
667.392	579
667.812	584.8
668.212	594
668.632	597
669.053	582
669.453	573
669.874	582.6
670.273	581.8
670.694	580
671.116	595.8
671.515	594.6
671.937	586.4
672.337	584.4
672.758	584
673.158	589.4
673.58	583.4
673.98	590
674.402	603.4
674.824	592.8
675.224	585.8
675.646	575.4
676.047	578
676.469	582.4
676.869	589.6
677.292	591.6
677.693	578.6
678.115	589.6
678.516	602.6
678.939	590
679.34	589.8
679.762	596.6
680.164	581.8
680.586	587.6
680.988	598.2
681.411	612.4
681.812	582.6
682.236	581.4
682.637	582.6
683.061	582.4
683.462	584.2
683.864	585.8
684.288	589.8
684.69	574.2
685.114	595.8
685.516	591.8
685.94	577.6
686.342	596.4
686.766	583.4
687.168	579.2
687.571	597.4
687.995	589.4
688.398	577.6
688.822	581.2
689.225	597.6
689.628	596.2
690.052	579
690.456	581.6
690.88	578.4
691.284	575.2
691.687	588.2
692.112	580.6
692.515	569.8
692.919	586.8
693.344	587.6
693.747	573.6
694.173	578
694.577	594
694.98	583.6
695.406	590.4
695.81	590
696.214	594.2
696.64	589.6
697.044	589.4
697.448	602.4
697.874	581.6
698.279	578.2
698.684	578
699.11	565.8
699.514	585.4
699.919	584.6
700.324	577.8
700.75	586.8
701.156	589.8
701.561	593.2
701.987	589.2
702.393	598.8
702.798	599.6
703.203	584.6
703.63	599.2
704.036	578.8
704.442	582.6
704.847	571.6
705.274	583.8
705.68	582.2
706.086	595.2
706.492	578.2
706.92	586.4
707.326	599.4
707.732	572.2
708.139	576.8
708.545	578.2
708.973	580.4
709.38	587.6
709.786	577.6
710.193	597
710.6	581.4
711.028	573.2
711.435	586.2
711.842	582.4
712.249	575.6
712.656	583
713.064	595
713.492	578.4
713.9	580
714.307	591.2
714.715	586.4
715.123	586.6
715.53	582
715.938	592.2
716.367	591.6
716.775	581.8
717.184	580
717.592	585.6
718	595.8
718.408	620.8
718.816	629.8
719.225	588
719.633	586.4
720.042	585.4
720.472	580
720.881	601
721.29	589.2
721.699	579
722.108	583.4
722.517	593.4
722.926	579.8
723.335	599.6
723.744	591.2
724.154	591.6
724.563	577
724.973	583.2
725.382	577.8
725.792	582
726.202	574.4
726.612	606.2
727.022	579.4
727.432	579.6
779.813	578.8
780.223	630.2
780.634	577
781.044	571
781.454	582.6
781.865	594.4
782.276	566
782.686	591.6
783.097	573.6
783.508	583.8
783.919	584
784.33	590.2
784.741	593
785.152	570.2
785.563	572.6
785.974	574.8
786.386	598.8
786.776	576.2
787.188	582
787.599	580.6
788.011	588.6
788.423	593.4
788.835	578.6
789.247	574.4
789.659	578.4
790.071	581.8
790.483	619.2
790.874	578.8
791.286	599.6
791.699	576.8
792.111	588.8
792.524	581.4
792.937	578.6
793.349	565
793.741	578
794.154	573.6
794.567	606.4
794.98	586.8
795.393	569.2
795.785	598.4
796.198	573.2
796.612	583.8
797.026	576.8
797.439	567.8
797.831	580.4
798.245	569.6
798.659	580.8
799.073	575.8
799.487	576.2
799.88	584.4
800.294	578.2
800.708	588.8
801.123	582.6
801.516	600.6
801.93	569.6
802.345	572.4
802.76	579.4
803.153	600.4
803.568	596.4
803.983	596.6
804.377	587
804.792	572.6
805.207	577.8
805.601	587.6
806.016	615
806.432	578
806.826	605
807.242	594.8
807.658	593.6
808.052	585.4
808.468	575.8
808.884	579.6
809.279	589.8
809.695	594
810.111	599.6
810.506	579.2
810.922	588
811.339	575.2
811.734	590.2
812.151	585.8
812.546	579.8
812.963	577.6
813.38	580.8
813.776	579.2
814.193	597
814.589	575.8
815.006	576.8
815.402	574.4
815.82	572.4
816.237	574.4
816.633	578
817.051	573.4
817.448	576.2
817.866	574
818.262	603.2
818.68	575.2
819.077	570.2
819.495	586.4
819.892	616.8
820.311	579.8
820.708	580.6
821.127	577.2
821.524	581.6
821.943	586.2
822.34	604.8
822.759	592.4
823.157	578.8
823.576	593.8
823.974	585.4
824.393	605.2
824.791	574.4
825.189	580
825.609	583
826.007	587.6
826.427	578.2
826.826	575.4
827.246	578.8
827.644	574
828.043	598.4
828.463	575.6
828.862	592.2
829.261	588.6
829.682	569.2
830.081	594
830.502	570.2
830.901	580.6
831.301	592.6
831.722	564.6
832.121	587
832.521	570
832.943	579.4
833.342	579.6
833.742	570.6
834.164	577.4
834.564	565.6
834.965	574.8
835.386	580.2
835.787	564.4
836.188	577
836.588	580.2
837.01	582.2
837.411	575.4
837.812	581
838.213	577.8
838.636	570.8
839.037	648.8
839.438	584.6
839.84	582
840.263	582.6
840.664	577.4
841.066	586.4
841.468	578.8
841.891	573.4
842.293	589.8
842.695	580.4
843.098	597.6
843.5	580.8
843.902	583.4
844.326	587.6
844.729	586.4
845.131	594.8
845.534	590.4
845.937	589.4
846.34	596.4
846.764	577.2
847.167	584.6
847.571	577.6
847.974	587.8
848.377	576.4
848.781	624
849.184	595.2
849.588	569
849.992	575.6
850.396	580.6
850.821	602.8
851.225	587
851.63	576.4
852.034	592.6
852.438	579.2
852.843	613.2
853.247	568.2
853.652	575
854.057	596.2
854.462	576.8
854.867	584.4
855.272	615
855.677	580.2
856.082	578.8
856.487	565.2
856.893	583.8
857.298	574.8
857.704	574
858.11	582.2
858.516	588
858.922	581.4
859.328	597
859.734	589.4
860.14	579.8
860.525	581
860.931	571.6
861.338	570.8
861.745	585.4
862.151	591.2
862.558	587
862.965	573.4
863.372	576.8
863.779	575.2
864.186	599.4
864.572	583.6
864.98	594.8
865.387	612.2
865.795	573.8
866.203	583.4
866.61	570.6
867.018	589.2
867.405	591.6
867.813	579
868.221	576.4
868.63	575.8
869.038	589.8
869.425	622.8
869.834	580.4
870.243	580
870.652	570
871.039	575.8
871.448	575.4
871.857	581.4
872.266	573.6
872.654	578
873.064	572.6
873.473	587.8
873.883	570.6
874.271	574.8
874.681	582.6
875.091	557.8
875.48	580.6
875.89	593
876.3	571.2
876.689	559.4
877.1	568.4
877.51	577.2
877.9	599.2
878.31	567.4
878.721	611.6
879.111	577
879.522	568.6
879.933	564.4
880.323	564.6
880.734	572.4
881.125	576.8
881.536	573
881.948	574.4
882.338	580.2
882.75	584.4
883.141	576.6
883.553	595
883.944	605.2
884.356	584
884.769	578.6
885.16	569
885.573	579.8
885.964	575.8
886.377	585.8
886.768	569.8
887.181	577.6
887.573	571
887.987	580.8
888.378	588.2
888.792	581
889.184	624.2
889.598	573.8
889.99	580
890.383	574.4
890.797	577
891.19	595.8
891.604	573.2
891.997	573
892.411	566.6
892.805	575.2
893.198	571.2
893.613	566.8
894.006	579.8
894.421	567.8
894.815	576
895.209	578.8
895.624	613.8
896.018	589.6
896.412	574.8
896.828	575.8
897.222	585.4
897.617	578.2
898.033	605.4
898.427	578.4
898.822	575.8
899.239	569.8
899.634	574.6
900.029	593.8
900.424	570.6
900.841	567.2
901.236	586.4
901.632	586.8
902.027	632
902.445	578.2
902.841	578.2
903.237	582.8
903.633	593.2
904.05	586.4
904.447	588
904.843	584.2
905.24	582.6
905.636	574.6
906.033	582.8
906.451	591.2
906.848	569.2
907.246	572.4
907.643	577.8
908.04	582.4
908.438	587.4
908.835	576.4
909.254	572.8
909.652	579.6
910.05	570.6
910.448	567.4
910.846	582.4
911.244	571.6
911.643	570.4
912.041	566.4
912.44	587.2
912.839	570.8
913.237	573.8
913.636	568.2
914.035	578.8
914.434	569.2
914.834	588.2
915.233	591.2
915.633	577
916.032	565
916.432	570
916.832	592.4
917.232	579.2
917.632	572
918.032	581.8
918.432	575.8
918.833	579.2
919.233	571.6
919.634	565.4
920.035	585.2
920.436	571
920.837	574
921.238	570.6
921.639	579
922.019	588
922.42	580.4
922.822	580.6
923.224	579.8
923.625	575.8
924.027	579
924.429	603
924.81	583
925.212	587.2
925.615	588
926.017	581.6
926.42	593.2
926.801	579
927.204	579.2
927.607	583.8
928.01	588.2
928.413	575.6
928.795	562.2
929.199	570.4
929.602	567
930.006	578.6
930.388	567
930.792	574
931.196	574.8
931.579	604.6
931.983	569.4
932.388	617.8
932.771	565
933.176	564.8
933.58	573.2
933.964	583.6
934.369	568.4
934.774	576.4
935.158	575.6
935.563	580
935.947	575.2
936.353	578.2
936.759	575.6
937.143	580.2
937.549	578.6
937.934	590.8
938.34	590.2
938.746	571.4
939.131	576.8
939.538	576
939.923	574.4
940.33	569
940.716	573.6
941.123	575
941.508	587
941.916	597.6
942.302	587.2
942.709	568.6
943.096	567
943.503	579.8
943.89	577.6
944.298	569.4
944.685	600.6
945.072	574
945.48	591.8
945.867	571
946.276	568
946.663	595
947.051	598.2
947.46	584.8
947.848	579.6
948.257	583.8
948.645	575
949.033	572
949.443	565.2
949.831	615.6
950.22	568.8
950.63	585.6
951.018	612.8
951.407	580.4
951.796	578.6
952.207	581.6
952.596	580
952.985	566.4
953.375	614.8
953.786	569.8
954.176	577.2
954.566	585.8
954.956	562.6
955.367	577
955.758	590
956.148	572.2
956.539	586
956.929	569.2
957.341	561.2
957.732	572
958.123	583.8
958.515	567.4
958.906	586.8
959.297	577
959.689	571.6
960.102	569.8
960.494	575.4
960.886	575.6
961.278	570
961.67	598
962.062	608.2
962.455	580.6
962.847	564.4
963.24	571.2
963.633	574.6
964.026	562
964.419	566.6
964.812	588.4
965.206	567.6
965.599	578.6
965.993	573.2
966.386	561.8
966.78	585.8
967.174	583.8
967.569	565.6
967.963	567.2
968.357	562.2
968.752	567
969.146	566.4
969.541	564.4
969.936	566.6
970.331	570.2
970.705	572.8
971.1	568.6
971.496	580.6
971.892	564.2
972.287	570.2
972.683	567.6
973.079	576.4
973.454	594
973.85	567.6
974.247	578.4
974.643	599.8
975.04	574
975.415	572.4
975.812	564
976.209	581.2
976.607	566.2
976.982	578.6
977.38	586.6
977.778	571
978.175	569.8
978.552	571.8
978.95	579
979.348	574.6
979.725	622.8
980.123	571.8
980.522	573
980.899	576.4
981.298	564.2
981.697	571
982.075	574.6
982.474	569.2
982.852	577.2
983.251	584.6
983.651	570.2
984.029	575
984.429	575.8
984.808	564.6
985.208	572.4
985.609	564.6
985.987	566.2
986.388	563.8
986.768	586.2
987.168	567
987.548	572.6
987.949	579.4
988.329	583.6
988.731	557.6
989.111	572.6
989.491	572
989.893	574.2
990.273	583.6
990.676	565.8
991.057	564.8
991.459	573.2
991.84	567
992.221	564.8
992.624	582.6
993.006	585.2
993.388	577
993.791	582.2
994.173	580.6
994.576	613
994.959	567.4
995.341	571.6
995.724	577.6
996.128	568.6
996.511	574.4
996.894	563.6
997.298	569
997.681	564.2
998.065	572
998.448	569
998.854	582.4
999.237	573.2
999.621	579.6
1000.01	582.6
1000.39	570
1000.8	566
1001.18	575.2
1001.56	573.2
1001.95	577.2
1002.33	580
1002.72	569.2
1003.13	574
1003.51	569.6
1003.9	562.8
1004.28	578.2
1004.67	564.6
1005.06	565.8
1005.44	596.2
1005.83	556.2
1006.21	573.8
1006.6	566.8
1006.99	584
1007.37	578.6
1007.76	574.4
1060.12	580.6
1060.51	569.4
1060.89	582.4
1061.28	577.4
1061.67	581.4
1062.06	572
1062.45	573.6
1062.83	568
1063.22	580.8
1063.61	611
1064	577.2
1064.39	581
1064.78	568.8
1065.14	585.6
1065.53	568.6
1065.92	571
1066.31	570.4
1066.7	585.2
1067.09	589.8
1067.46	583
1067.85	567.4
1068.24	571
1068.63	574
1069.02	577.6
1069.39	567.4
1069.78	569.4
1070.17	573.4
1070.57	566.8
1070.93	578.6
1071.33	564.4
1071.72	570
1072.11	566.2
1072.48	560.4
1072.87	572.8
1073.26	571.2
1073.64	575.2
1074.03	562.6
1074.4	576.8
1074.79	575.6
1075.19	577.6
1075.56	567.2
1075.95	566
1076.34	569.4
1076.72	568.4
1077.11	577.8
1077.48	589.2
1077.88	572
1078.25	575
1078.64	574.2
1079.02	564.8
1079.41	579.6
1079.78	567.6
1080.18	559.4
1080.55	641.6
1080.95	560.6
1081.32	567.4
1081.72	583.4
1082.09	577.6
1082.49	567
1082.86	574.8
1083.24	565.4
1083.63	562.6
1084.01	566.4
1084.38	576.8
1084.78	569.2
1085.16	577.4
1085.55	581.2
1085.93	586.2
1086.31	568.6
1086.7	599
1087.08	578.2
1087.46	575
1087.83	572
1088.23	580.2
1088.61	563
1088.99	577.6
1089.36	570.2
1089.76	573.8
1090.14	573.8
1090.52	578.4
1090.9	563
1091.27	582
1091.67	600
1092.05	575.6
1092.43	568.6
1092.81	580.8
1093.19	581.8
1093.57	569
1093.95	572.2
1094.35	583.2
1094.73	580
1095.11	562
1095.49	563.6
1095.87	570.8
1096.25	580.8
1096.63	587.4
1097.01	579
1097.39	572
1097.77	579
1098.15	571.6
1098.53	564
1098.91	567.8
1099.29	568
1099.68	592.6
1100.06	587
1100.44	570.4
1100.82	575.2
1101.18	570.4
1101.56	567.6
1101.95	568.8
1102.33	566
1102.71	571.8
1103.1	563
1103.48	564
1103.86	565.4
1104.22	581.4
1104.61	570.8
1104.99	570.4
1105.38	566
1105.76	573
1106.12	576.4
1106.51	604.2
1106.89	582
1107.26	572.4
1107.64	581.2
1108.03	566.6
1108.41	577
1108.78	568
1109.16	566.2
1109.55	571.6
1109.91	550.6
1110.3	550
1110.69	568.6
1111.05	564
1111.44	569.8
1111.8	563
1112.19	566.6
1112.58	573.2
1112.94	566.8
1113.33	574
1113.7	564.4
1114.09	565
1114.45	561.6
1114.84	562.4
1115.21	577.8
1115.6	569.6
1115.96	575.2
1116.35	578
1116.72	566.8
1117.11	582.6
1117.48	562
1117.85	570.4
1118.24	581.6
1118.6	569.8
1118.99	563.6
1119.36	572.4
1119.73	567.8
1120.12	573.2
1120.49	560
1120.86	575
1121.25	571.8
1121.62	561.4
1121.99	567.6
1122.38	584.4
1122.76	571.8
1123.13	567.2
1123.5	577.8
1123.89	575.6
1124.26	555.6
1124.63	571.2
1125	567.8
1125.4	562
1125.77	566.6
1126.14	560.4
1126.51	562.2
1126.88	575.6
1127.26	565.6
1127.63	557.6
1128.02	571.8
1128.4	563.6
1128.77	568.8
1129.14	572.4
1129.52	564.8
1129.89	571.8
1130.26	565
1130.64	567.6
1131.01	566.6
