#lambda/nm	C1
208.295	510.4
208.67	465.6
209.045	427.8
209.419	431
209.794	612.2
210.169	604.6
210.544	718.2
210.919	621.8
211.295	609
211.67	615.8
212.045	611.4
212.421	610.4
212.796	650.6
213.172	605.4
213.547	613.6
213.923	612.6
214.299	611.8
214.675	623.2
215.051	623.2
215.427	624.4
215.803	640.6
216.179	626.6
216.555	615.2
216.932	635.8
217.308	617.6
217.684	617.2
218.061	625.4
218.438	619.2
218.814	610.6
219.191	627
219.568	608.8
219.945	617
220.322	626.2
220.699	617
221.076	623.4
221.453	619
221.83	616.2
222.208	616.4
222.585	615.4
222.962	611.8
223.34	614.4
223.717	613.6
224.095	611.2
224.473	618.2
224.851	610.4
225.229	602.4
225.607	619.8
225.985	610
226.363	621
226.741	611.2
227.119	612
227.497	620.2
227.876	601
228.254	619.8
228.633	620.8
229.011	618.6
229.39	613.8
229.769	616.4
230.148	611.4
230.527	632.6
230.905	609.2
231.284	618.2
231.664	609.4
232.043	622.6
232.422	616.8
232.801	596
233.181	615
233.56	608
233.94	615.2
234.319	606
234.699	615.6
235.079	642.6
235.458	651.8
235.838	633.8
236.218	606
236.598	602
236.978	609.4
237.358	600.6
237.738	604.4
238.119	630.2
238.499	612.2
238.88	619.2
239.26	633
239.641	611.8
240.021	615.4
240.402	615
240.783	617.6
241.163	611
241.544	614.2
241.925	618.6
242.306	631.2
242.687	622
243.069	610.6
243.45	630.2
243.831	613.4
244.212	612.2
244.594	660
244.975	624.2
245.357	619.4
245.739	616
246.12	619.2
246.502	634.2
246.884	611.8
247.266	617.2
247.648	615.4
248.03	632.8
248.412	616.2
248.794	618.4
249.176	619.2
249.559	629.6
249.941	615.4
250.323	604.8
250.706	610.8
251.089	610.6
251.471	621.6
251.854	613.4
252.237	610.8
252.62	624.6
253.002	613.6
253.385	618.4
253.769	630.4
254.152	622.2
254.535	621.8
254.918	604.8
255.301	613.6
255.685	613.8
256.068	606.8
256.452	634.8
256.835	629.4
257.219	622
257.603	630
257.986	613.2
258.37	630.6
258.754	602
259.138	619.6
259.522	632.8
259.906	614
260.29	611.8
260.675	610.4
261.059	628
261.443	611.6
261.828	627.4
262.212	628
262.597	605.4
262.981	616
263.366	624
263.751	620.8
264.136	615.2
264.521	611.6
264.906	610.4
265.291	627.2
265.676	619.8
266.061	619.2
266.446	629
266.831	617.6
267.217	636.8
267.602	619.2
267.987	614.6
268.373	612.8
268.759	625.8
269.144	625
269.53	611
269.916	599.6
270.302	609.4
270.688	617
271.074	615.6
271.46	627
271.846	649.6
272.232	619
272.618	607.4
273.004	613.4
273.391	625.4
273.777	629.6
274.164	619.6
274.55	632
274.937	622.2
275.324	616.4
275.71	628.2
276.097	624
276.484	610.4
276.871	617.6
277.258	623.2
277.645	606.6
278.032	613.8
278.419	621.6
278.807	619.8
279.194	611.2
279.581	615.6
279.969	621.8
280.356	617.4
280.744	615
281.131	644.2
281.519	629.6
281.907	617.2
282.295	608.4
282.682	638.8
283.07	619.8
283.458	624.8
283.846	635.8
284.235	633.4
284.623	632
285.011	608.2
285.399	628
285.788	615.8
286.176	604
286.565	624
286.953	613
287.342	617
287.731	616.2
288.119	611.2
288.508	607
288.897	620
289.286	604.2
289.675	623
290.064	631
290.453	615.2
290.821	621.4
291.21	630.2
291.599	605.2
291.989	623
292.378	619.8
292.768	641.2
293.157	617
293.547	625.4
293.936	616.4
294.326	616
294.716	624.8
295.106	622.2
295.496	629.6
295.886	626.4
296.276	620.4
296.666	603.8
297.056	611.4
297.446	606.2
297.836	629.6
298.227	613.4
298.617	615.6
299.008	624.8
299.398	613
299.789	611.8
300.179	626.8
300.57	631.6
300.961	612.2
301.352	613
301.742	624.2
302.133	618.2
302.524	612.4
302.915	619
303.307	610.8
303.698	621.8
304.089	624.6
304.48	616
304.872	618.4
305.263	612.2
305.655	604.4
306.046	628
306.438	621.4
306.829	614
307.221	626.2
307.613	624.8
308.005	627.6
308.397	622.6
308.789	638.4
309.181	642
309.573	633.8
309.965	626.4
310.357	616.2
310.749	629.2
311.142	614.4
311.534	618.2
311.926	620
312.319	614.4
312.711	612
313.104	634
313.497	613.2
313.889	661.6
314.282	639.6
314.675	644.6
315.068	622.4
315.461	624
315.854	647.4
316.247	626.6
316.64	616.6
317.033	619.8
317.405	634.4
317.798	616.4
318.192	622.8
318.585	611.6
318.979	617.8
319.372	613.8
319.766	616.4
320.16	628.2
320.553	629.4
320.947	636
321.341	607.8
321.735	622.8
322.129	609.8
322.523	647.8
322.917	606.8
323.311	627.6
323.705	624.8
324.099	623.2
324.494	637.8
324.888	629.8
325.282	613.2
325.677	635.4
326.071	623.4
326.466	635
326.861	624.8
327.255	636.2
327.65	638.2
328.045	629.2
328.44	619.2
328.835	620
329.23	616.6
329.625	646
330.02	613
330.415	637.4
330.81	616.8
331.206	619
331.601	617.2
331.996	621.6
332.37	639.6
332.766	601
333.161	636.8
333.557	614.2
333.953	616.6
334.348	983.4
334.744	613.2
335.14	616
335.536	618
335.932	631
336.328	616
336.724	629.8
337.12	611.8
337.516	628.6
337.913	623.8
338.309	619.6
338.705	616
339.102	629.4
339.498	604.4
339.895	623.4
340.291	617.2
340.688	630.6
341.085	615
341.481	622.2
341.878	613
342.275	635
342.672	613.2
343.069	602.2
343.466	606.2
343.842	622
344.239	613.4
344.636	619.4
345.033	607.6
345.431	610.6
345.828	615.2
346.225	600.6
346.623	646.8
347.02	610.2
347.418	624.2
347.816	630.8
348.213	609.8
348.611	623
349.009	604.6
349.407	633.4
349.805	604.4
350.203	604.2
350.601	625.2
350.999	612.8
351.397	673.6
351.795	610
352.193	627
352.57	627
352.969	630.4
353.367	608
353.766	612.8
354.164	613.8
354.563	622.2
354.961	613
355.36	615.8
355.759	612.8
356.158	612.6
356.557	604
356.956	599.6
357.355	604.6
357.754	620
358.153	626.8
358.552	644.4
358.951	618.6
359.35	624.8
359.75	609.4
360.149	607.6
360.527	607.8
360.926	607.8
361.326	611.6
361.726	612.8
362.125	607.6
362.525	617
362.925	604.2
363.325	612.4
363.724	620.4
364.124	608.4
364.524	604.4
364.924	608.2
365.324	625.4
365.725	602.2
366.125	623.2
366.525	607.6
366.904	603.6
367.304	588.2
367.705	622.4
368.105	620
368.506	610.6
368.906	617.6
369.307	608.4
369.708	617
370.108	594
370.509	615.6
370.91	602
371.311	619.2
371.712	601.2
372.113	604.4
372.514	597.2
372.894	610.6
373.295	607.6
373.696	618.2
374.097	626.8
374.499	643.8
374.9	613.8
375.301	606.8
375.703	603.4
376.105	595.8
376.506	616.2
376.908	612.8
377.309	603.2
377.711	607.4
378.113	608
378.493	610
378.895	593.6
379.297	620.2
379.699	594.4
380.102	610
380.504	604.2
380.906	605.2
381.308	629.6
381.71	606.6
382.113	616
382.515	600.8
382.918	607.6
383.299	606.4
383.701	621
384.104	609.4
384.507	591.6
384.909	612.6
385.312	603.2
385.715	600
386.118	604.8
386.521	593.4
386.924	629.6
387.327	599.2
387.709	599.2
388.112	598
388.515	608.6
388.918	613.4
389.322	617.2
389.725	611
390.129	625.4
390.532	613
390.936	592.6
391.339	604.6
391.743	613
392.125	601.2
392.529	621
392.933	625.4
393.337	606.2
393.74	608
394.144	608.2
394.548	606
394.953	604.4
395.357	614.2
395.761	603.2
396.144	611.2
396.548	612.2
396.952	602.8
397.357	605.6
397.761	602.2
398.166	611.6
398.57	593
398.975	595.4
399.379	610.6
399.763	650.8
400.168	606
400.572	609.2
400.977	603.2
401.382	625.4
401.787	621.4
402.192	627.6
402.597	621.8
403.002	599
403.386	617.2
403.791	626
404.197	596
404.602	609.2
405.007	608
405.413	613.2
405.818	607
406.224	598.4
406.608	609.2
407.014	602.4
407.42	621.8
407.825	600.2
408.231	613
408.637	613.6
409.043	619.8
409.449	605.8
409.834	611.2
410.24	616
410.646	618.8
411.052	619.2
411.458	610.6
411.865	626.4
412.271	622.8
412.677	616.4
413.062	616.2
413.469	607.8
413.875	634.4
414.282	616.8
414.689	613.8
415.095	614.2
415.502	604
415.888	610.4
416.294	600.2
416.701	646.8
417.108	596.2
417.515	622.4
417.923	609.8
418.33	630.2
418.715	625.2
419.123	612.6
419.53	601.4
419.937	610
420.345	634.4
420.752	613
421.16	624.2
421.546	614.6
421.953	614.2
422.361	610.4
422.769	616
423.177	606.2
423.585	626.4
423.992	629.8
424.379	620
424.787	620.8
425.195	628.8
425.603	608.4
426.011	622.6
426.419	625.4
426.806	616.6
427.214	611.6
427.623	621.4
428.031	623.6
428.44	612.8
428.848	622.4
429.235	626.2
429.644	618.8
430.053	621.2
430.461	626.2
430.87	638.6
431.279	620.6
431.666	613.6
432.075	615.4
432.484	634.8
432.893	621.6
433.302	645
433.711	658.4
434.099	640.4
434.508	630.6
434.918	627
435.327	656.4
435.737	651
436.125	651
436.534	662.6
436.944	665.2
437.353	672
437.763	697.4
438.173	674.2
438.561	695.4
438.971	674.8
439.381	690.2
439.791	702.2
440.201	685.2
440.589	714.6
440.999	717
441.409	731.2
441.819	720.2
442.23	727.8
442.619	747.8
443.029	750.4
443.439	747
443.85	762.6
444.26	772.2
444.649	770.6
445.06	767
445.471	762.4
445.881	764
446.292	788.4
446.682	806.6
447.092	768.2
447.503	836.2
447.914	788
448.325	795.2
448.715	794.8
449.126	791.6
449.537	796
449.948	800.4
450.338	808
450.75	815.2
451.161	808.8
451.572	816.6
451.984	816.6
452.374	803.2
452.786	816.8
453.197	827
453.609	816.6
453.999	805.4
454.411	814.2
454.823	824.2
455.235	819.2
455.647	823.4
456.037	824.6
456.449	805.2
456.862	818.4
457.274	833.6
457.665	826.2
458.077	825.2
458.489	856.8
458.902	827
459.293	832
459.705	848
460.118	833
460.53	831.6
460.921	831.6
461.334	843
461.747	835
462.16	848.4
462.551	852.8
462.964	837.2
463.377	813.6
463.79	833.8
464.182	845.4
464.595	842
465.008	848.4
465.421	844.4
465.813	842.2
466.226	847.8
466.64	836.6
467.053	890.2
467.445	861.6
467.859	856.2
468.272	862.8
468.686	859.2
469.078	847
469.492	838
469.906	849.6
470.298	859.4
470.712	840.8
471.126	901.2
471.54	833.2
471.933	836.2
472.347	850.8
472.761	838
473.175	839.4
473.568	841.8
473.982	829.8
474.397	846.8
474.79	834.8
475.204	859.2
475.619	839.6
476.033	847.4
476.426	841
476.841	844.8
477.256	877.8
477.649	842.8
478.064	828.2
478.479	833.6
478.872	834.4
479.287	829.8
479.702	827
480.118	837.4
480.511	833.2
480.927	824.8
481.342	830
481.736	842
482.151	832.8
482.566	838
482.96	834.2
483.376	838.6
483.792	824.6
484.186	839
484.602	818.4
485.017	826.2
485.412	821
485.827	830.8
486.243	819.2
486.638	847.2
487.054	827.4
487.47	824.8
487.865	822.2
488.281	814.8
488.697	807.8
489.092	815.4
489.508	804.2
489.925	820
490.32	803.8
490.736	817.8
491.153	812.8
491.548	807.8
491.964	814
492.381	789.8
492.776	804
493.193	803
493.61	810
494.006	797.8
494.422	806
494.84	795.2
495.235	807.8
495.652	796.2
496.069	786.2
496.465	778.2
496.883	790.8
497.3	809.4
497.696	779
498.113	785
498.509	778.2
498.927	769.4
499.344	779.4
499.741	764.2
500.158	788.2
500.576	789.4
500.973	775.6
501.39	760.4
501.787	772.4
502.205	768.8
502.623	756.6
503.02	750
503.438	758.8
503.856	761.8
504.253	764.8
504.671	762.4
505.068	755.8
505.486	752.6
505.905	771
506.302	759.8
506.72	761.8
507.118	742
507.536	752.8
507.955	753.2
508.352	748
508.771	756.4
509.169	757.2
509.587	733.2
510.006	749
510.404	729.2
510.823	727.2
511.221	733
511.64	744.4
512.038	749.4
512.457	731.4
512.877	730.6
513.275	714.2
513.694	725
514.092	728.4
514.512	729.6
514.91	731.8
515.33	722
515.749	723.2
516.148	729.2
516.568	726.8
516.966	711.4
517.386	725.4
517.785	720
518.205	710.6
518.603	699.8
519.024	709.8
519.444	705.8
519.843	719.4
520.263	710.2
520.662	715.4
521.082	711.4
521.481	706.4
521.902	713.2
522.301	711
522.722	695.6
523.121	697.8
523.542	696.6
523.963	690
524.362	697.8
524.783	708.2
525.183	696.8
525.604	706
526.003	692.2
526.425	686.6
526.824	702
527.246	691.4
527.646	697.8
528.067	693.4
528.467	692.2
528.888	694.4
529.289	678.8
529.71	684.6
530.11	676.6
530.532	676.6
530.932	674.4
531.354	672.4
531.755	707.8
532.176	685.4
532.577	681.4
532.999	674.8
533.4	671.2
533.822	695.4
534.223	678.2
534.645	679.4
535.046	671
535.468	675.4
535.869	686.2
536.292	674
536.693	703.6
537.115	668.8
537.516	664.4
537.939	666.8
538.34	682.4
538.742	673.4
539.165	667.2
539.566	668.4
539.989	654.8
540.391	661.6
540.814	673
541.216	669
541.639	668.2
542.041	676.2
542.464	653.6
542.866	648.4
543.268	650.4
543.691	659.8
544.093	666.4
544.517	682.2
544.919	653.4
545.343	682.4
545.745	651
546.147	664.8
546.571	648.6
546.974	645.2
547.398	650.4
547.8	661.8
548.224	641.4
548.627	654.4
549.03	657.2
549.454	638.2
549.857	635
550.281	638.2
550.684	635.8
551.087	654.4
551.512	643.8
551.915	648.6
552.34	649.2
552.743	648.6
553.146	644.6
553.571	647.6
553.975	656.8
554.399	642
554.803	689
555.207	642.8
555.632	643.6
556.036	644.4
556.461	640.6
556.865	645.6
557.268	634.4
557.694	632.6
558.098	657.4
558.502	649.4
558.927	634
559.332	642.2
559.736	638.8
560.162	637.8
560.566	628.4
560.992	635
561.396	639.4
561.801	627.4
562.227	641.8
562.631	624.6
563.036	631.8
563.462	638.2
563.867	631.6
564.272	613.4
564.698	635.8
565.103	618.4
565.508	654.4
565.935	630.2
566.34	629.4
566.745	646.4
567.172	625.4
567.577	637.8
567.982	641.2
568.409	640.2
568.815	614.8
569.22	631.6
569.626	630
570.053	611.6
570.459	617.4
570.865	632
571.292	632.4
571.698	632.8
572.104	617
572.531	619.4
572.937	633.6
573.343	628.8
573.75	614.4
574.177	623.2
574.583	630.8
574.99	620.8
575.396	631.2
575.824	610.8
576.231	632
576.637	619.4
577.065	645.6
577.472	618.8
577.879	620.8
578.286	639.8
578.714	617.4
579.121	605.6
579.528	627
579.935	626.4
580.364	620.8
580.771	605.8
581.178	603.4
581.585	615.6
582.014	617.2
582.421	608.6
582.829	614.2
583.236	626.6
583.644	608.2
584.073	619.6
584.481	611
584.889	609
585.296	623.2
585.726	617
586.134	613.8
586.542	602.6
586.95	630.6
587.358	601
587.787	614.4
588.196	619.8
588.604	609.2
589.012	616
589.421	604.2
589.851	602
590.259	613.8
590.668	610.4
591.076	653.6
591.485	600.6
591.894	616
592.324	626.4
592.733	617.2
593.142	595.4
593.551	609.4
593.96	616.4
594.369	598.6
594.8	608
595.209	607.4
595.618	592.2
596.028	606.4
596.437	594.8
596.847	604.8
597.256	610
597.687	610.8
598.097	602.8
598.507	595
598.917	612.4
599.327	610.2
599.736	612.2
600.146	607.2
600.556	606.2
600.988	615.6
601.398	604.2
601.808	615
602.219	599.6
602.629	604.4
603.039	612.6
603.45	637.4
603.86	608.4
604.271	623.8
604.703	601.4
605.114	598.2
605.525	604.6
605.935	602.2
606.346	627
606.757	600.8
607.168	596.6
607.579	597.2
607.99	615.4
608.402	602.4
608.813	612.8
609.224	606
609.636	589
610.047	594.8
610.48	605.4
610.892	613.6
611.303	616.4
611.715	600.6
612.127	599
612.539	593.6
612.95	602.4
613.362	595.4
613.774	588.6
614.186	595.6
614.599	588.2
615.011	609.6
615.423	600.8
615.835	593
616.248	596.8
616.66	603.6
617.073	586.6
617.485	589.6
617.898	610.4
618.311	588.8
618.723	590.6
619.136	621.4
619.549	610.4
619.962	621.8
620.375	585.4
620.788	602.4
621.201	583.8
621.614	607.8
622.028	591.8
622.441	596.8
622.854	593.4
623.268	589.4
623.681	608.8
624.095	593.2
624.509	600.4
624.922	596.6
625.336	585.8
625.728	597
626.142	604.8
626.556	615
626.97	600
627.384	591.2
627.799	598.4
628.213	608.2
628.627	588.2
629.041	584.6
629.456	599
629.87	598.2
630.285	607.4
630.699	614.8
631.093	592
631.507	597.4
631.922	598
632.337	614.2
632.752	584.8
633.167	599.2
633.582	592.6
633.997	588.2
634.412	589.2
634.806	594.6
635.221	580.2
635.637	602.8
636.052	586.6
636.468	597.6
636.883	614
637.299	592.4
637.715	588
638.109	593.8
638.525	574.4
638.941	607.6
639.357	595.6
639.773	603.6
640.189	591.6
640.584	594.6
641	596
641.416	585.2
641.832	593
642.249	590.2
642.665	592
643.06	595.2
643.477	596.4
643.894	588
644.31	593.2
644.727	591.6
645.123	592.6
645.54	582
645.957	585.2
646.374	609.6
646.77	595
647.187	619.6
647.604	594.4
648.021	575.4
648.439	586.2
648.835	601.4
649.252	590.8
649.67	590.8
650.088	595.8
650.484	594
650.902	601.8
651.32	591.8
651.738	590
652.134	593.6
652.552	614.2
652.971	602.4
653.389	594.8
653.786	610
654.204	607.4
654.622	588.6
655.019	584.2
655.438	602.2
655.857	595.8
656.275	598.8
656.673	577.8
657.091	594
657.51	586.8
657.908	597.6
658.327	602.6
658.746	577.4
659.144	583.4
659.563	605.6
659.982	592.6
660.38	582.4
660.8	589
661.219	599.4
661.617	596.2
662.037	597.4
662.457	608
662.855	582.8
663.275	626
663.695	598.6
664.094	600.8
664.514	598.4
664.934	586.8
665.333	596.4
665.753	590.6
666.152	587.4
666.572	593.6
666.993	613.8
667.392	585
667.812	588.2
668.212	586.2
668.632	600.6
669.053	592.4
669.453	594.4
669.874	591.8
670.273	597
670.694	594.6
671.116	605.2
671.515	597.2
671.937	589.2
672.337	593
672.758	589.8
673.158	593.2
673.58	584.4
673.98	597
674.402	604.4
674.824	590
675.224	581.6
675.646	578.4
676.047	587.6
676.469	589.4
676.869	594
677.292	594
677.693	589.6
678.115	584.6
678.516	599.2
678.939	589
679.34	589.4
679.762	602.2
680.164	605.2
680.586	582
680.988	591
681.411	618
681.812	586
682.236	579.2
682.637	584.4
683.061	579.6
683.462	598.2
683.864	591.6
684.288	603.4
684.69	580.2
685.114	604.6
685.516	599.8
685.94	584.8
686.342	599.4
686.766	591.2
687.168	586.2
687.571	604.2
687.995	596.6
688.398	581.8
688.822	592.8
689.225	597
689.628	612
690.052	593.8
690.456	598.6
690.88	590.2
691.284	589
691.687	591.2
692.112	579.8
692.515	581.4
692.919	592.8
693.344	593
693.747	589
694.173	582.4
694.577	597.2
694.98	582.8
695.406	591.6
695.81	599
696.214	600
696.64	595.8
697.044	600.6
697.448	599.2
697.874	581.2
698.279	583.2
698.684	575.2
699.11	585.4
699.514	585.8
699.919	586
700.324	580.6
700.75	593
701.156	593.4
701.561	603.2
701.987	593.4
702.393	595.2
702.798	607
703.203	587
703.63	582.2
704.036	585.2
704.442	585
704.847	580.2
705.274	581.6
705.68	591.8
706.086	591.2
706.492	580.6
706.92	585.8
707.326	597.2
707.732	589
708.139	589.2
708.545	578.4
708.973	577.6
709.38	592.2
709.786	582.2
710.193	605.2
710.6	592.6
711.028	576.2
711.435	594
711.842	589.6
712.249	585.6
712.656	586.2
713.064	590.6
713.492	580.8
713.9	575.8
714.307	591.6
714.715	580.2
715.123	585.6
715.53	579
715.938	594
716.367	591.8
716.775	588.4
717.184	580.2
717.592	586.8
718	595.6
718.408	613.8
718.816	629
719.225	585.8
719.633	586.6
720.042	576.6
720.472	591
720.881	599
721.29	586.6
721.699	573.8
722.108	590.2
722.517	586.2
722.926	581.8
723.335	588.2
723.744	592.6
724.154	586.4
724.563	591
724.973	586.2
725.382	581.4
725.792	590.4
726.202	573.2
726.612	600.4
727.022	581.8
727.432	583
779.813	573
780.223	632.2
780.634	583.6
781.044	582.4
781.454	581.8
781.865	596.8
782.276	577.4
782.686	595.4
783.097	574.6
783.508	580.4
783.919	585
784.33	596.2
784.741	595.6
785.152	574.8
785.563	581
785.974	577.8
786.386	591.6
786.776	588.8
787.188	583.2
787.599	582.4
788.011	590.4
788.423	597.2
788.835	582.2
789.247	572.2
789.659	576.2
790.071	587.6
790.483	627.2
790.874	575.4
791.286	588
791.699	587
792.111	582
792.524	585.6
792.937	585
793.349	572.4
793.741	578
794.154	571.4
794.567	601.2
794.98	588
795.393	570.8
795.785	601.6
796.198	584.4
796.612	584.8
797.026	582
797.439	572.4
797.831	583.6
798.245	578.2
798.659	578.2
799.073	589.6
799.487	578.4
799.88	582
800.294	584
800.708	592.8
801.123	585
801.516	604.4
801.93	577.6
802.345	574
802.76	585.2
803.153	600.4
803.568	596.4
803.983	597.8
804.377	583.4
804.792	586.4
805.207	568.6
805.601	585.2
806.016	613.8
806.432	583.2
806.826	613.4
807.242	589.4
807.658	589.4
808.052	582.2
808.468	585.2
808.884	582.4
809.279	587.2
809.695	597.8
810.111	609.2
810.506	585.6
810.922	598.4
811.339	580
811.734	595.4
812.151	582.8
812.546	578.2
812.963	573.8
813.38	590.2
813.776	592.2
814.193	602.8
814.589	583.2
815.006	579.8
815.402	578
815.82	584.4
816.237	586.4
816.633	591.6
817.051	574.8
817.448	586
817.866	576.6
818.262	598.2
818.68	578.8
819.077	578
819.495	587.8
819.892	624.2
820.311	574.8
820.708	580.4
821.127	579.4
821.524	597.8
821.943	583.8
822.34	601.6
822.759	589.4
823.157	592
823.576	587.6
823.974	593.8
824.393	608
824.791	581.6
825.189	571.4
825.609	580
826.007	585.6
826.427	570.8
826.826	582.2
827.246	586.4
827.644	566.2
828.043	591.4
828.463	577
828.862	585.2
829.261	583.4
829.682	569.4
830.081	586.4
830.502	579.6
830.901	592.8
831.301	597.2
831.722	569.8
832.121	582.6
832.521	583
832.943	576.4
833.342	588.6
833.742	572
834.164	579
834.564	570.4
834.965	587.2
835.386	583.2
835.787	580
836.188	576.6
836.588	587
837.01	583.8
837.411	576.4
837.812	592.8
838.213	587.2
838.636	576
839.037	648
839.438	585.4
839.84	573.2
840.263	588.2
840.664	598.6
841.066	584.4
841.468	577.4
841.891	585.8
842.293	604.8
842.695	592.8
843.098	593.6
843.5	576.8
843.902	596.8
844.326	589.4
844.729	587.4
845.131	595.8
845.534	585.2
845.937	596.2
846.34	593.4
846.764	576.6
847.167	585.6
847.571	584.6
847.974	583
848.377	585.4
848.781	629.4
849.184	596.8
849.588	586.2
849.992	577.4
850.396	585
850.821	605.2
851.225	593.8
851.63	585.4
852.034	590.8
852.438	582
852.843	614.2
853.247	580
853.652	570.2
854.057	601.6
854.462	585.6
854.867	591.4
855.272	613.6
855.677	585
856.082	577.6
856.487	563.2
856.893	584.6
857.298	588.6
857.704	577.4
858.11	587
858.516	590.2
858.922	585.2
859.328	592.6
859.734	579
860.14	589.4
860.525	579
860.931	574.8
861.338	582.2
861.745	585
862.151	591.8
862.558	586
862.965	574.4
863.372	573.2
863.779	578.4
864.186	593.8
864.572	588.2
864.98	603.4
865.387	606.6
865.795	571
866.203	587
866.61	568.4
867.018	587.8
867.405	588.6
867.813	571.4
868.221	570
868.63	572.6
869.038	584.6
869.425	614.8
869.834	578.2
870.243	570.6
870.652	571.8
871.039	576.2
871.448	581.2
871.857	593.4
872.266	586.2
872.654	590.2
873.064	580.8
873.473	592.8
873.883	577
874.271	573.8
874.681	589.6
875.091	576.2
875.48	602
875.89	605.2
876.3	580.8
876.689	575.4
877.1	577.8
877.51	579
877.9	604.4
878.31	582.6
878.721	607.4
879.111	576.8
879.522	576.4
879.933	571.6
880.323	570.4
880.734	571.6
881.125	585
881.536	581.4
881.948	576.2
882.338	584.2
882.75	588.8
883.141	577.2
883.553	581.2
883.944	609.2
884.356	584.2
884.769	569.8
885.16	589
885.573	584.8
885.964	580.6
886.377	578.8
886.768	569
887.181	576
887.573	571.2
887.987	588.6
888.378	589
888.792	584.4
889.184	628.6
889.598	579.4
889.99	583.2
890.383	570.4
890.797	566.4
891.19	600
891.604	581.4
891.997	569.2
892.411	577.6
892.805	567
893.198	573.8
893.613	568
894.006	578.4
894.421	570
894.815	576.8
895.209	574.8
895.624	623.6
896.018	600.2
896.412	575.6
896.828	577.6
897.222	585
897.617	576.4
898.033	599
898.427	594.8
898.822	580
899.239	567.2
899.634	567.8
900.029	590.8
900.424	575.2
900.841	567.2
901.236	584.2
901.632	576.2
902.027	638.6
902.445	581.4
902.841	573
903.237	567.8
903.633	596
904.05	590.8
904.447	592
904.843	586.2
905.24	572
905.636	572
906.033	583.2
906.451	593.2
906.848	576.6
907.246	577.6
907.643	586
908.04	591.6
908.438	595.2
908.835	589.2
909.254	585
909.652	589.8
910.05	580.2
910.448	577.8
910.846	587
911.244	572.8
911.643	588
912.041	584.2
912.44	589.8
912.839	577.4
913.237	585.8
913.636	576.4
914.035	592.4
914.434	581.6
914.834	593.2
915.233	588.2
915.633	575.2
916.032	573
916.432	576.6
916.832	599
917.232	585.6
917.632	572.2
918.032	585
918.432	577.2
918.833	579.4
919.233	571
919.634	576.4
920.035	588.4
920.436	575.4
920.837	584.6
921.238	583
921.639	581
922.019	581.4
922.42	580.2
922.822	582.6
923.224	591.8
923.625	573.8
924.027	577.2
924.429	605.6
924.81	580
925.212	584.4
925.615	589.2
926.017	579.4
926.42	591.8
926.801	582.6
927.204	582.8
927.607	585.8
928.01	589.8
928.413	572.6
928.795	567.8
929.199	568
929.602	578.2
930.006	570
930.388	576.4
930.792	584.2
931.196	575.2
931.579	611.4
931.983	580.8
932.388	621.8
932.771	574
933.176	572.8
933.58	575.4
933.964	580.2
934.369	572.2
934.774	579.8
935.158	575.6
935.563	584.2
935.947	580.4
936.353	587.8
936.759	579.6
937.143	582.8
937.549	576.6
937.934	589.2
938.34	600.6
938.746	574.2
939.131	581
939.538	569.4
939.923	587.2
940.33	568.6
940.716	576.4
941.123	581.4
941.508	597.8
941.916	593.6
942.302	583
942.709	579.2
943.096	580.6
943.503	581.2
943.89	575.2
944.298	575
944.685	615
945.072	576.8
945.48	596
945.867	566.4
946.276	577.2
946.663	604.6
947.051	591.4
947.46	596
947.848	580
948.257	581.4
948.645	580.2
949.033	575.2
949.443	575.6
949.831	611.8
950.22	561.8
950.63	598.4
951.018	607.2
951.407	575
951.796	567.8
952.207	572
952.596	576.2
952.985	569.4
953.375	619.6
953.786	572
954.176	574.8
954.566	592.6
954.956	566.8
955.367	576.4
955.758	592.4
956.148	565.8
956.539	585
956.929	569.2
957.341	567.4
957.732	571.2
958.123	574.8
958.515	574.8
958.906	586
959.297	568.2
959.689	572.2
960.102	567.6
960.494	574.6
960.886	568
961.278	565
961.67	593.2
962.062	609.8
962.455	582.2
962.847	569
963.24	574.8
963.633	572.6
964.026	560.8
964.419	573.4
964.812	582.4
965.206	572.6
965.599	571.4
965.993	579.6
966.386	575.4
966.78	584
967.174	590.6
967.569	572.2
967.963	571.4
968.357	570.8
968.752	574.2
969.146	570.8
969.541	568.4
969.936	580.2
970.331	578.8
970.705	565.4
971.1	579
971.496	586.6
971.892	569.2
972.287	569.4
972.683	570.2
973.079	569.6
973.454	590.2
973.85	572.2
974.247	581.8
974.643	604.6
975.04	579.4
975.415	577.4
975.812	568
976.209	577.8
976.607	568.8
976.982	581.4
977.38	595.2
977.778	577
978.175	570.2
978.552	582.4
978.95	582.6
979.348	577.8
979.725	626.4
980.123	574
980.522	575.2
980.899	570.8
981.298	575.2
981.697	575.2
982.075	569.8
982.474	573.4
982.852	573.6
983.251	585.4
983.651	569.4
984.029	584.2
984.429	573.8
984.808	568.8
985.208	574.8
985.609	571.4
985.987	565.8
986.388	576.6
986.768	581
987.168	572
987.548	591.2
987.949	576.6
988.329	588
988.731	561.4
989.111	577.2
989.491	581.4
989.893	573
990.273	577
990.676	557.2
991.057	570.2
991.459	574.6
991.84	568.4
992.221	563.8
992.624	590.6
993.006	579.8
993.388	573
993.791	584.8
994.173	581.2
994.576	613
994.959	566.4
995.341	568.4
995.724	575.8
996.128	569.8
996.511	577
996.894	573.6
997.298	576
997.681	577.2
998.065	572.2
998.448	572.2
998.854	577.2
999.237	566.2
999.621	591
1000.01	588.2
1000.39	579.2
1000.8	577.6
1001.18	578.8
1001.56	574.8
1001.95	582.2
1002.33	580.2
1002.72	570
1003.13	578.8
1003.51	575.2
1003.9	575.2
1004.28	588.4
1004.67	563.6
1005.06	577.8
1005.44	616.4
1005.83	569.4
1006.21	566.6
1006.6	569
1006.99	588.8
1007.37	587.8
1007.76	577
1060.12	576.4
1060.51	570
1060.89	592.8
1061.28	582
1061.67	586.2
1062.06	587.6
1062.45	577.6
1062.83	569.4
1063.22	584.4
1063.61	607.2
1064	587.4
1064.39	577.4
1064.78	571.8
1065.14	594.8
1065.53	574
1065.92	584
1066.31	564.8
1066.7	578.4
1067.09	592.2
1067.46	586.2
1067.85	575.2
1068.24	582.4
1068.63	575.8
1069.02	570
1069.39	584.6
1069.78	566.2
1070.17	577.4
1070.57	561.8
1070.93	574.6
1071.33	568
1071.72	575
1072.11	574.4
1072.48	569.8
1072.87	581.2
1073.26	581.2
1073.64	574.4
1074.03	573
1074.4	569.2
1074.79	581.8
1075.19	576.8
1075.56	586.4
1075.95	585.6
1076.34	582.8
1076.72	579.6
1077.11	577.8
1077.48	589
1077.88	575.2
1078.25	579.4
1078.64	588
1079.02	582
1079.41	582.4
1079.78	565.8
1080.18	565.2
1080.55	643.4
1080.95	573
1081.32	573.4
1081.72	584.6
1082.09	582.4
1082.49	570.8
1082.86	576.4
1083.24	560.4
1083.63	562.8
1084.01	574.2
1084.38	588.4
1084.78	566.2
1085.16	577.2
1085.55	588.6
1085.93	588.8
1086.31	569.2
1086.7	607.6
1087.08	586.6
1087.46	569.2
1087.83	570
1088.23	589.4
1088.61	579.8
1088.99	575.6
1089.36	568.4
1089.76	575.4
1090.14	578
1090.52	575
1090.9	574.4
1091.27	595.4
1091.67	600.2
1092.05	584.2
1092.43	563.6
1092.81	578.2
1093.19	585.8
1093.57	579.2
1093.95	571.6
1094.35	587
1094.73	578
1095.11	563
1095.49	564
1095.87	567.2
1096.25	591.4
1096.63	585.4
1097.01	575.8
1097.39	582.4
1097.77	567.6
1098.15	573.6
1098.53	572.6
1098.91	571.2
1099.29	560.6
1099.68	585.6
1100.06	577.6
1100.44	572.8
1100.82	582.2
1101.18	579.4
1101.56	572
1101.95	570
1102.33	568.2
1102.71	576.2
1103.1	556.2
1103.48	557.2
1103.86	561.2
1104.22	581
1104.61	569
1104.99	571.4
1105.38	568
1105.76	574.4
1106.12	574
1106.51	605.4
1106.89	579.6
1107.26	567.2
1107.64	580.2
1108.03	572.6
1108.41	576.2
1108.78	572.8
1109.16	573.2
1109.55	585.4
1109.91	556
1110.3	556
1110.69	583
1111.05	570
1111.44	577.4
1111.8	572.8
1112.19	575.8
1112.58	580.4
1112.94	563.8
1113.33	566.2
1113.7	562.2
1114.09	565
1114.45	560.6
1114.84	577.8
1115.21	584.4
1115.6	569.2
1115.96	580.4
1116.35	579.8
1116.72	572.2
1117.11	588.2
1117.48	565.6
1117.85	581.6
1118.24	587
1118.6	580.6
1118.99	570
1119.36	578.2
1119.73	568.6
1120.12	573.8
1120.49	558.6
1120.86	581.4
1121.25	563.8
1121.62	556.6
1121.99	571
1122.38	580.6
1122.76	578.8
1123.13	562.4
1123.5	576.4
1123.89	582.4
1124.26	563.4
1124.63	577.2
1125	567.8
1125.4	565.8
1125.77	565.8
1126.14	552.4
1126.51	573
1126.88	575.6
1127.26	568.2
1127.63	560.6
1128.02	583.6
1128.4	570.2
1128.77	573.4
1129.14	576.8
1129.52	573.6
1129.89	579.8
1130.26	561.4
1130.64	559.4
1131.01	568.6
