#lambda/nm	C1
208.295	510.8
208.67	468.4
209.045	432.8
209.419	434.4
209.794	610.4
210.169	601.4
210.544	721.8
210.919	626.4
211.295	607.4
211.67	619.6
212.045	612
212.421	612.2
212.796	650.8
213.172	615.8
213.547	610.8
213.923	615.4
214.299	612.2
214.675	623.4
215.051	616.4
215.427	616.6
215.803	639.6
216.179	615.4
216.555	597.2
216.932	621.4
217.308	612.2
217.684	617.4
218.061	629.4
218.438	625.4
218.814	613.6
219.191	629.4
219.568	614.8
219.945	613.2
220.322	610.8
220.699	623.2
221.076	624.6
221.453	617.6
221.83	608.6
222.208	613.2
222.585	612.2
222.962	612
223.34	616
223.717	622.2
224.095	618.2
224.473	618.6
224.851	613.6
225.229	610.4
225.607	631
225.985	605.6
226.363	618.8
226.741	610.8
227.119	616
227.497	628.2
227.876	608
228.254	622.4
228.633	619.6
229.011	620
229.39	620.8
229.769	619.2
230.148	619.6
230.527	632
230.905	617.8
231.284	622.6
231.664	618
232.043	630
232.422	618
232.801	614.4
233.181	618.6
233.56	610.8
233.94	622.2
234.319	603.4
234.699	613.2
235.079	659
235.458	651
235.838	638
236.218	606.8
236.598	609.4
236.978	612
237.358	606.2
237.738	614
238.119	624.6
238.499	612
238.88	618.4
239.26	629.8
239.641	614.6
240.021	618.4
240.402	621.8
240.783	605.6
241.163	618.6
241.544	626.6
241.925	617.4
242.306	629.8
242.687	616.4
243.069	617.2
243.45	621.4
243.831	607.8
244.212	614.8
244.594	650.8
244.975	627.6
245.357	619.8
245.739	607.6
246.12	610.8
246.502	628
246.884	608.6
247.266	618.8
247.648	629
248.03	630.6
248.412	625.8
248.794	621.8
249.176	610.4
249.559	623
249.941	604.6
250.323	601.2
250.706	610.6
251.089	606
251.471	610.2
251.854	615.4
252.237	610.6
252.62	621.4
253.002	629.4
253.385	617.6
253.769	632.4
254.152	625.4
254.535	621.8
254.918	609.4
255.301	608.4
255.685	613.8
256.068	608.4
256.452	635.8
256.835	632
257.219	619.8
257.603	627.4
257.986	606.4
258.37	618
258.754	608.2
259.138	626
259.522	616.2
259.906	612.8
260.29	627
260.675	620
261.059	615.8
261.443	605.4
261.828	621.4
262.212	614.8
262.597	607
262.981	612.6
263.366	621
263.751	613.8
264.136	610
264.521	616.2
264.906	608.6
265.291	628
265.676	614.2
266.061	618.6
266.446	635.2
266.831	612.4
267.217	643.6
267.602	621.6
267.987	618.8
268.373	608
268.759	630
269.144	622.4
269.53	612.8
269.916	612.4
270.302	601.4
270.688	620.2
271.074	621.4
271.46	633.4
271.846	649.4
272.232	618.6
272.618	617
273.004	613.6
273.391	631.6
273.777	626.4
274.164	625
274.55	636.6
274.937	629.4
275.324	614.4
275.71	630.6
276.097	629
276.484	605.6
276.871	620
277.258	623.6
277.645	607
278.032	614
278.419	613
278.807	620.2
279.194	601.2
279.581	608.4
279.969	620.4
280.356	624
280.744	620.8
281.131	643.8
281.519	625.2
281.907	616
282.295	612.2
282.682	622.2
283.07	624.4
283.458	627
283.846	622.2
284.235	632.2
284.623	628.6
285.011	605.6
285.399	618.8
285.788	620.2
286.176	607.2
286.565	627.8
286.953	608.6
287.342	603.2
287.731	609.4
288.119	598.2
288.508	617.4
288.897	619
289.286	598
289.675	612.2
290.064	626.2
290.453	605
290.821	609.4
291.21	628
291.599	611.8
291.989	607.6
292.378	624
292.768	638.4
293.157	614.2
293.547	619.8
293.936	601.4
294.326	607.4
294.716	624
295.106	617.2
295.496	618.4
295.886	626.4
296.276	616.8
296.666	615
297.056	607.8
297.446	602.6
297.836	631
298.227	605.8
298.617	605.2
299.008	625
299.398	608.8
299.789	611.2
300.179	622.8
300.57	636
300.961	615.4
301.352	616.4
301.742	633.4
302.133	617.8
302.524	613.4
302.915	623.6
303.307	612.4
303.698	622.6
304.089	617.8
304.48	617.8
304.872	626.2
305.263	622.2
305.655	612
306.046	624.6
306.438	621.6
306.829	617.2
307.221	633.8
307.613	618
308.005	624.8
308.397	631.6
308.789	641.8
309.181	648.8
309.573	633.4
309.965	631.2
310.357	614
310.749	636.6
311.142	615.8
311.534	619.8
311.926	627
312.319	614
312.711	615.4
313.104	632.8
313.497	615.6
313.889	654.8
314.282	635.8
314.675	645.6
315.068	621.4
315.461	624.2
315.854	645
316.247	625.8
316.64	616.4
317.033	620.2
317.405	625
317.798	617.8
318.192	620.2
318.585	603.2
318.979	627.8
319.372	614.2
319.766	622.2
320.16	632.2
320.553	638.8
320.947	637
321.341	613.6
321.735	617.4
322.129	611
322.523	636.6
322.917	610.2
323.311	628.4
323.705	615.8
324.099	619.2
324.494	640
324.888	636.8
325.282	628
325.677	632
326.071	626.8
326.466	625.2
326.861	616.6
327.255	635
327.65	645
328.045	635.8
328.44	621.2
328.835	622.6
329.23	615.2
329.625	647.8
330.02	614.8
330.415	643
330.81	615
331.206	637.8
331.601	621.8
331.996	632.8
332.37	642
332.766	612.6
333.161	649
333.557	611
333.953	618.6
334.348	953.2
334.744	620.6
335.14	615.6
335.536	621.4
335.932	635.2
336.328	616.6
336.724	632.4
337.12	618.2
337.516	622
337.913	616.4
338.309	629.8
338.705	615.6
339.102	632.6
339.498	623.8
339.895	630.6
340.291	616
340.688	621.6
341.085	607.8
341.481	613.2
341.878	619.8
342.275	627.6
342.672	607.6
343.069	605
343.466	600.6
343.842	625.2
344.239	603.6
344.636	615.6
345.033	605.8
345.431	610
345.828	613.4
346.225	611.6
346.623	645.6
347.02	614.8
347.418	626
347.816	631.6
348.213	605.4
348.611	624.8
349.009	602.4
349.407	625.8
349.805	605.4
350.203	606.4
350.601	625.4
350.999	622
351.397	670.8
351.795	615.6
352.193	621.8
352.57	617.8
352.969	626.8
353.367	603
353.766	608
354.164	612.2
354.563	624
354.961	615.2
355.36	609.2
355.759	612
356.158	606.4
356.557	613
356.956	602.4
357.355	601.6
357.754	626.2
358.153	611.2
358.552	636.6
358.951	609.8
359.35	632.8
359.75	611
360.149	602.2
360.527	604
360.926	606.6
361.326	611.6
361.726	615.4
362.125	612.2
362.525	620.4
362.925	607
363.325	605.8
363.724	613.4
364.124	613.2
364.524	608.4
364.924	603.4
365.324	618.4
365.725	597.4
366.125	614
366.525	610.2
366.904	606.8
367.304	598.8
367.705	628.4
368.105	617.8
368.506	608.6
368.906	604.8
369.307	615.6
369.708	619.4
370.108	601.4
370.509	622.2
370.91	606
371.311	610.8
371.712	614.6
372.113	615.6
372.514	607.6
372.894	607.8
373.295	598.2
373.696	613.4
374.097	616.2
374.499	645.2
374.9	619.4
375.301	605.4
375.703	620
376.105	606.8
376.506	607.8
376.908	620.8
377.309	604.2
377.711	607.8
378.113	608
378.493	614.2
378.895	603.4
379.297	618.8
379.699	591
380.102	620
380.504	608.8
380.906	603.2
381.308	629.6
381.71	605
382.113	616
382.515	609.4
382.918	613.6
383.299	609.4
383.701	616.4
384.104	606
384.507	589.4
384.909	603.8
385.312	588.2
385.715	599.6
386.118	605.2
386.521	596.4
386.924	618.2
387.327	596.6
387.709	586.6
388.112	587.2
388.515	606.4
388.918	603
389.322	606
389.725	598.2
390.129	629
390.532	606
390.936	610
391.339	598
391.743	605
392.125	596.2
392.529	618.6
392.933	624.6
393.337	606.6
393.74	602.8
394.144	613
394.548	594.4
394.953	607.2
395.357	615.2
395.761	607
396.144	612.6
396.548	606.4
396.952	608
397.357	608.8
397.761	609.4
398.166	602.6
398.57	607
398.975	604.4
399.379	610.2
399.763	666.2
400.168	613
400.572	610.2
400.977	604.2
401.382	629.4
401.787	614
402.192	628.4
402.597	620
403.002	599
403.386	628.8
403.791	632.2
404.197	604
404.602	614
405.007	618.8
405.413	605.8
405.818	614.8
406.224	594.6
406.608	604.6
407.014	600.6
407.42	626.8
407.825	606.2
408.231	615.6
408.637	607.6
409.043	622.8
409.449	605.2
409.834	610.2
410.24	603.6
410.646	624.8
411.052	618
411.458	617.2
411.865	620.6
412.271	621.8
412.677	615.4
413.062	616.8
413.469	600
413.875	646.2
414.282	620.4
414.689	619
415.095	614.6
415.502	600.4
415.888	609.4
416.294	598.6
416.701	652.4
417.108	604.6
417.515	615.4
417.923	611.8
418.33	632.8
418.715	617
419.123	608.6
419.53	617
419.937	614
420.345	628.8
420.752	614.6
421.16	631.8
421.546	607.6
421.953	625.4
422.361	608.2
422.769	614.2
423.177	606.2
423.585	632.8
423.992	638.6
424.379	618.8
424.787	618.8
425.195	630.8
425.603	617
426.011	630.4
426.419	627.6
426.806	612.4
427.214	618.4
427.623	620.8
428.031	631.8
428.44	618.6
428.848	626
429.235	628.4
429.644	615
430.053	626.8
430.461	636.2
430.87	645.8
431.279	632
431.666	624.8
432.075	625.4
432.484	637.4
432.893	628
433.302	664
433.711	668.4
434.099	653.4
434.508	651
434.918	645.2
435.327	678.2
435.737	670.6
436.125	679.2
436.534	688.2
436.944	691
437.353	694.2
437.763	725.4
438.173	705.2
438.561	735
438.971	701.6
439.381	727.8
439.791	745.6
440.201	722.4
440.589	746.8
440.999	768.8
441.409	770.2
441.819	748.6
442.23	783.6
442.619	786.8
443.029	787.8
443.439	789.2
443.85	809.4
444.26	827
444.649	812.8
445.06	815.2
445.471	816.8
445.881	826.8
446.292	847.2
446.682	841.8
447.092	820.4
447.503	890
447.914	831.8
448.325	832.2
448.715	835.6
449.126	836.4
449.537	857.6
449.948	852.4
450.338	851
450.75	870.2
451.161	854.6
451.572	863
451.984	865.4
452.374	852.8
452.786	860
453.197	871.4
453.609	888
453.999	852.4
454.411	853.4
454.823	880.4
455.235	876
455.647	865
456.037	880.6
456.449	860.6
456.862	871.4
457.274	871.2
457.665	861
458.077	900.6
458.489	906.4
458.902	878.6
459.293	882.4
459.705	876
460.118	868.8
460.53	881.8
460.921	894.6
461.334	890
461.747	887
462.16	903
462.551	896.6
462.964	893.8
463.377	856.6
463.79	892.6
464.182	907.6
464.595	893.6
465.008	898
465.421	890
465.813	885.4
466.226	903.8
466.64	895.2
467.053	940.6
467.445	908
467.859	919.4
468.272	884.6
468.686	909.2
469.078	889.2
469.492	893.2
469.906	905.6
470.298	912.6
470.712	888.8
471.126	942.2
471.54	888.6
471.933	892.8
472.347	905.6
472.761	891
473.175	889.2
473.568	895.2
473.982	881.4
474.397	882.8
474.79	888.4
475.204	905
475.619	880.8
476.033	891
476.426	878.2
476.841	873.4
477.256	904.2
477.649	874.2
478.064	877
478.479	882.4
478.872	862.4
479.287	861.2
479.702	860.8
480.118	872.2
480.511	871.4
480.927	875
481.342	877.2
481.736	877.2
482.151	871.4
482.566	877.4
482.96	876.8
483.376	879.4
483.792	854.8
484.186	867.4
484.602	865.2
485.017	864
485.412	852.6
485.827	861
486.243	853.2
486.638	889.6
487.054	855.4
487.47	852
487.865	851
488.281	846
488.697	839.4
489.092	846.6
489.508	832.2
489.925	844.8
490.32	841.8
490.736	847.2
491.153	842.6
491.548	848.6
491.964	841
492.381	819.8
492.776	832
493.193	832.6
493.61	833.6
494.006	823.6
494.422	832.6
494.84	823.2
495.235	836.4
495.652	820.8
496.069	817.8
496.465	810.4
496.883	814.2
497.3	843.8
497.696	810.2
498.113	823
498.509	802.8
498.927	813
499.344	807
499.741	803.2
500.158	825.8
500.576	804
500.973	802.2
501.39	794
501.787	786.4
502.205	802.4
502.623	794.6
503.02	783
503.438	785.4
503.856	788
504.253	784.8
504.671	788.8
505.068	776.2
505.486	784.2
505.905	802.4
506.302	774
506.72	782.8
507.118	769.6
507.536	772.4
507.955	769.8
508.352	764.2
508.771	774
509.169	775.6
509.587	758
510.006	757.6
510.404	754.6
510.823	751.6
511.221	766.6
511.64	749.6
512.038	757.8
512.457	757.2
512.877	756.6
513.275	749
513.694	751
514.092	756.4
514.512	751
514.91	752.4
515.33	752.2
515.749	743
516.148	741.2
516.568	740.2
516.966	724.8
517.386	739.8
517.785	748
518.205	725.2
518.603	721.6
519.024	728.8
519.444	738.6
519.843	743
520.263	737.6
520.662	725.8
521.082	724.8
521.481	724.8
521.902	720.2
522.301	728.6
522.722	725.4
523.121	719.4
523.542	715.4
523.963	718.6
524.362	709.6
524.783	713.8
525.183	714.4
525.604	715.2
526.003	706.4
526.425	693.4
526.824	714.4
527.246	713.6
527.646	717.2
528.067	701.2
528.467	701
528.888	709
529.289	694.4
529.71	696.8
530.11	697.6
530.532	697
530.932	683.6
531.354	688.8
531.755	727.4
532.176	697.2
532.577	692.2
532.999	690.6
533.4	680
533.822	698.2
534.223	695.2
534.645	681.6
535.046	674.4
535.468	680.6
535.869	700.6
536.292	676.4
536.693	715
537.115	686.2
537.516	669
537.939	680.2
538.34	697
538.742	693
539.165	679.6
539.566	678.6
539.989	669.2
540.391	673.2
540.814	673.4
541.216	679.6
541.639	675.4
542.041	678.2
542.464	672.4
542.866	671
543.268	665.6
543.691	675.6
544.093	676.2
544.517	687
544.919	668.4
545.343	696
545.745	664.2
546.147	673.6
546.571	665
546.974	653.2
547.398	656.8
547.8	672.2
548.224	668
548.627	661.2
549.03	663.4
549.454	656.2
549.857	648.2
550.281	654
550.684	653.2
551.087	665
551.512	662.8
551.915	659.8
552.34	660.6
552.743	648.8
553.146	657
553.571	653.6
553.975	668.2
554.399	641
554.803	700
555.207	642.4
555.632	638.2
556.036	654.6
556.461	647.2
556.865	652.6
557.268	647.2
557.694	648
558.098	653
558.502	649.6
558.927	637
559.332	648
559.736	652.4
560.162	653.8
560.566	646.6
560.992	642.8
561.396	643.6
561.801	637.4
562.227	641.8
562.631	627
563.036	634.2
563.462	643.4
563.867	643
564.272	625.8
564.698	639.8
565.103	626.2
565.508	661.6
565.935	629.4
566.34	633.8
566.745	651
567.172	638.6
567.577	652.4
567.982	640.4
568.409	646
568.815	629.6
569.22	636.4
569.626	639.2
570.053	619.8
570.459	634.4
570.865	631.8
571.292	643.2
571.698	628
572.104	609.2
572.531	618.6
572.937	637.4
573.343	627.4
573.75	621.8
574.177	613.8
574.583	632
574.99	621.2
575.396	628.8
575.824	622.6
576.231	621
576.637	618.8
577.065	649.2
577.472	613.4
577.879	615.2
578.286	645.6
578.714	615.2
579.121	620.4
579.528	625.2
579.935	618.2
580.364	621.2
580.771	606
581.178	610.8
581.585	620.2
582.014	619.6
582.421	613.2
582.829	606.8
583.236	622.6
583.644	609
584.073	606
584.481	609.6
584.889	612.4
585.296	615.8
585.726	610
586.134	604.2
586.542	606.8
586.95	630.8
587.358	601
587.787	610.2
588.196	623.2
588.604	602.8
589.012	602.6
589.421	597
589.851	599
590.259	618.6
590.668	615
591.076	646.6
591.485	601.4
591.894	611
592.324	617.2
592.733	628.4
593.142	605.6
593.551	608.6
593.96	609.4
594.369	612.2
594.8	605.2
595.209	608.2
595.618	599.8
596.028	611.8
596.437	600.4
596.847	612.8
597.256	606.6
597.687	613
598.097	610.8
598.507	600.2
598.917	605.2
599.327	615.8
599.736	614
600.146	612.8
600.556	616.6
600.988	616
601.398	605
601.808	615.8
602.219	602.8
602.629	606
603.039	608
603.45	633.8
603.86	602.8
604.271	606.6
604.703	610.4
605.114	605.6
605.525	598.8
605.935	611
606.346	624.2
606.757	612.6
607.168	606.2
607.579	604.4
607.99	614.4
608.402	603.8
608.813	603.4
609.224	597.2
609.636	594.4
610.047	606.2
610.48	607.8
610.892	608.2
611.303	610
611.715	598.8
612.127	597.4
612.539	607.4
612.95	603
613.362	594.6
613.774	583.6
614.186	595.6
614.599	600.4
615.011	612
615.423	603
615.835	591.4
616.248	588.4
616.66	604.8
617.073	593
617.485	598.4
617.898	604
618.311	601.6
618.723	611
619.136	622.8
619.549	610.4
619.962	625.2
620.375	595.4
620.788	609.8
621.201	603
621.614	606.2
622.028	600
622.441	606.6
622.854	611.2
623.268	593.6
623.681	608
624.095	601.2
624.509	608.8
624.922	603.6
625.336	592
625.728	598.8
626.142	605.6
626.556	616.8
626.97	606.4
627.384	593.4
627.799	602.4
628.213	605.4
628.627	599
629.041	590.2
629.456	590.6
629.87	594.2
630.285	609.4
630.699	596.8
631.093	588.4
631.507	602
631.922	606.4
632.337	614.4
632.752	591
633.167	599.6
633.582	594.2
633.997	593.4
634.412	585.6
634.806	593.4
635.221	592.6
635.637	613.4
636.052	594.8
636.468	595
636.883	610.2
637.299	591.8
637.715	590.8
638.109	608.6
638.525	590.2
638.941	614.4
639.357	605.2
639.773	604.6
640.189	595
640.584	598.2
641	594.2
641.416	587.4
641.832	590.4
642.249	582.6
642.665	599.6
643.06	595.2
643.477	600.6
643.894	581
644.31	590.6
644.727	584.6
645.123	593.6
645.54	589.8
645.957	597.8
646.374	604.4
646.77	595
647.187	623.4
647.604	594.6
648.021	578.6
648.439	592.6
648.835	599.8
649.252	585.2
649.67	599
650.088	588.2
650.484	593
650.902	598.2
651.32	599.6
651.738	591
652.134	602.4
652.552	614.2
652.971	600.6
653.389	598.4
653.786	609.2
654.204	613.8
654.622	580
655.019	598.8
655.438	601.2
655.857	597.4
656.275	593.6
656.673	591.8
657.091	598.8
657.51	590
657.908	599
658.327	606
658.746	580
659.144	594.2
659.563	610.8
659.982	594.4
660.38	584.8
660.8	593.2
661.219	594.6
661.617	597.6
662.037	593.8
662.457	596.8
662.855	573.8
663.275	633.8
663.695	601
664.094	590.8
664.514	605.2
664.934	590.2
665.333	593.8
665.753	593.6
666.152	583
666.572	588.2
666.993	610.8
667.392	594.2
667.812	592.2
668.212	594.4
668.632	598.6
669.053	583.8
669.453	596.4
669.874	588.2
670.273	600.6
670.694	583.6
671.116	597
671.515	594.6
671.937	587.6
672.337	581
672.758	582.6
673.158	592.2
673.58	584.8
673.98	592.8
674.402	598.4
674.824	589.4
675.224	583.4
675.646	582.6
676.047	583.6
676.469	592.4
676.869	594.4
677.292	591.6
677.693	582
678.115	581
678.516	599.2
678.939	588.8
679.34	588.6
679.762	595.8
680.164	586
680.586	579.4
680.988	587.6
681.411	614.4
681.812	593
682.236	571.6
682.637	580.8
683.061	566.4
683.462	585
683.864	574.4
684.288	598
684.69	581.6
685.114	595.6
685.516	592.4
685.94	575.6
686.342	594
686.766	585
687.168	577.6
687.571	609.4
687.995	602
688.398	582.6
688.822	584.4
689.225	607.6
689.628	609.6
690.052	594.6
690.456	588.2
690.88	584.4
691.284	578.4
691.687	591.6
692.112	580
692.515	581
692.919	600.8
693.344	594.8
693.747	584.8
694.173	594
694.577	596.8
694.98	588.6
695.406	592.6
695.81	585
696.214	585.4
696.64	589.4
697.044	593.6
697.448	594.6
697.874	597
698.279	586.2
698.684	582.4
699.11	586.2
699.514	585.8
699.919	585.4
700.324	579.2
700.75	592
701.156	584.8
701.561	599.8
701.987	591.6
702.393	605
702.798	609.4
703.203	593.2
703.63	586.6
704.036	585
704.442	584.8
704.847	574.8
705.274	583.4
705.68	594.6
706.086	596.4
706.492	579.8
706.92	591.4
707.326	598.4
707.732	591
708.139	577
708.545	571.2
708.973	579.2
709.38	586
709.786	573.4
710.193	601.8
710.6	591.6
711.028	582.6
711.435	584.2
711.842	590.4
712.249	583.6
712.656	587.6
713.064	602.6
713.492	586
713.9	590
714.307	598.2
714.715	590.8
715.123	592.4
715.53	590
715.938	602
716.367	597.6
716.775	581.8
717.184	581.8
717.592	587.6
718	594.6
718.408	615.4
718.816	630.8
719.225	599.8
719.633	583.6
720.042	580.6
720.472	583
720.881	605.2
721.29	588.8
721.699	580
722.108	593
722.517	589.4
722.926	581.4
723.335	602
723.744	587.6
724.154	593.4
724.563	592.2
724.973	589
725.382	592.4
725.792	590.4
726.202	573.8
726.612	604.4
727.022	586.4
727.432	580.8
779.813	588.4
780.223	623.8
780.634	585.4
781.044	577.4
781.454	575
781.865	596.2
782.276	574.2
782.686	586
783.097	584.6
783.508	583.4
783.919	587.4
784.33	599
784.741	604.4
785.152	582.6
785.563	573.6
785.974	582.2
786.386	600.8
786.776	584.6
787.188	581.2
787.599	580
788.011	595.4
788.423	578.8
788.835	591.4
789.247	574.2
789.659	575.8
790.071	582.6
790.483	632.6
790.874	584.6
791.286	599.4
791.699	580
792.111	593.2
792.524	586.8
792.937	579.6
793.349	582.4
793.741	588.6
794.154	583.8
794.567	604.4
794.98	588.4
795.393	572
795.785	598.8
796.198	583.8
796.612	593.4
797.026	576.8
797.439	575
797.831	579
798.245	584.6
798.659	584.8
799.073	579.6
799.487	586.6
799.88	579.4
800.294	587.6
800.708	587.2
801.123	594.8
801.516	607.4
801.93	574
802.345	576.2
802.76	585
803.153	599.4
803.568	594.4
803.983	599.8
804.377	597.2
804.792	574.6
805.207	571.8
805.601	592.2
806.016	623.8
806.432	576.4
806.826	622.8
807.242	600.8
807.658	585.8
808.052	587.4
808.468	577
808.884	577.4
809.279	582.8
809.695	590.6
810.111	605.8
810.506	593.2
810.922	609
811.339	578
811.734	591.2
812.151	581
812.546	585.2
812.963	581.6
813.38	587.6
813.776	586.8
814.193	598.4
814.589	583
815.006	582.2
815.402	586.4
815.82	580.4
816.237	580.4
816.633	589.4
817.051	567.4
817.448	581.4
817.866	572.2
818.262	600.4
818.68	573.4
819.077	577
819.495	583.6
819.892	618
820.311	564.8
820.708	573.6
821.127	581.2
821.524	602.8
821.943	592.4
822.34	601.2
822.759	579.8
823.157	584.8
823.576	604.6
823.974	580
824.393	629
824.791	580.4
825.189	568
825.609	581.4
826.007	575
826.427	567.4
826.826	572.4
827.246	578.6
827.644	567.2
828.043	582.6
828.463	572.4
828.862	584.6
829.261	585.2
829.682	576
830.081	581.6
830.502	568.2
830.901	585.2
831.301	600.2
831.722	569.4
832.121	581.6
832.521	576.6
832.943	580.4
833.342	583.2
833.742	565.4
834.164	581.4
834.564	567.6
834.965	582.8
835.386	574.6
835.787	570.8
836.188	583.8
836.588	589.8
837.01	573.2
837.411	572.8
837.812	587.4
838.213	587
838.636	583.8
839.037	652.6
839.438	586
839.84	589.6
840.263	583.2
840.664	585
841.066	590.4
841.468	583.2
841.891	572.6
842.293	596.6
842.695	583
843.098	590
843.5	579.4
843.902	593.8
844.326	586.4
844.729	583.6
845.131	594
845.534	584
845.937	598
846.34	603
846.764	581.2
847.167	582
847.571	577.4
847.974	576.8
848.377	577
848.781	630.2
849.184	589
849.588	577.6
849.992	572
850.396	588
850.821	593.8
851.225	588
851.63	573.8
852.034	596.2
852.438	589
852.843	610.6
853.247	577.6
853.652	583.8
854.057	594.8
854.462	586.4
854.867	594.8
855.272	615.2
855.677	583.8
856.082	580.8
856.487	583.2
856.893	580.4
857.298	582.6
857.704	576
858.11	590.6
858.516	590
858.922	579
859.328	587.6
859.734	591.8
860.14	593.2
860.525	588.6
860.931	579.2
861.338	580.4
861.745	585.6
862.151	596.6
862.558	576.8
862.965	574.6
863.372	583
863.779	579.8
864.186	613
864.572	585.4
864.98	600.4
865.387	610.4
865.795	571.4
866.203	592.8
866.61	581.2
867.018	599.4
867.405	590.6
867.813	579.6
868.221	578.2
868.63	585.8
869.038	589.8
869.425	617.4
869.834	585.4
870.243	569.8
870.652	579.6
871.039	567.2
871.448	588.6
871.857	590.8
872.266	584.2
872.654	584.4
873.064	577.8
873.473	592.8
873.883	577
874.271	572.6
874.681	593.2
875.091	567
875.48	591.6
875.89	597.6
876.3	585.4
876.689	569.4
877.1	580.2
877.51	581.8
877.9	605.6
878.31	573
878.721	606.2
879.111	583
879.522	583.2
879.933	574
880.323	570.8
880.734	577.4
881.125	582.4
881.536	585.6
881.948	571.8
882.338	583.4
882.75	587.4
883.141	583
883.553	587.8
883.944	608.8
884.356	590
884.769	583
885.16	587
885.573	580.2
885.964	577.2
886.377	579.6
886.768	572.2
887.181	581
887.573	575
887.987	596.6
888.378	595.2
888.792	587.4
889.184	634.2
889.598	577.8
889.99	581.2
890.383	573.4
890.797	577.4
891.19	596.6
891.604	575.6
891.997	584.6
892.411	578
892.805	570.2
893.198	579.2
893.613	569.4
894.006	585.4
894.421	568.2
894.815	579.8
895.209	583.6
895.624	624.8
896.018	593.4
896.412	577
896.828	585.2
897.222	582.8
897.617	586.2
898.033	600.6
898.427	580.2
898.822	576.8
899.239	571.4
899.634	569.2
900.029	599.4
900.424	573.8
900.841	575.6
901.236	590.4
901.632	577.4
902.027	639.4
902.445	586.4
902.841	579
903.237	576.2
903.633	593.2
904.05	588
904.447	583
904.843	598.2
905.24	585
905.636	576
906.033	579.4
906.451	596.8
906.848	571.6
907.246	578
907.643	574.6
908.04	584.6
908.438	594.4
908.835	582.6
909.254	583.8
909.652	579.8
910.05	571.4
910.448	584.4
910.846	588.2
911.244	569.6
911.643	594.2
912.041	575.6
912.44	590.4
912.839	569.2
913.237	571.4
913.636	573.8
914.035	587
914.434	583
914.834	586.8
915.233	590.2
915.633	568.2
916.032	570.4
916.432	569.2
916.832	590.2
917.232	576.8
917.632	574.6
918.032	577.6
918.432	574.4
918.833	576.4
919.233	571.8
919.634	567.2
920.035	587.6
920.436	568.8
920.837	575.4
921.238	565.2
921.639	570.8
922.019	571.6
922.42	578
922.822	579
923.224	577.6
923.625	573.6
924.027	580.8
924.429	595.2
924.81	581.4
925.212	575.2
925.615	576.8
926.017	580.6
926.42	597.2
926.801	576.6
927.204	579.4
927.607	579.6
928.01	589.4
928.413	576.8
928.795	568.4
929.199	583.4
929.602	569.6
930.006	574
930.388	572
930.792	579.8
931.196	575
931.579	610.2
931.983	571.6
932.388	627
932.771	579.6
933.176	573.2
933.58	582.6
933.964	583.2
934.369	569.4
934.774	575.2
935.158	581
935.563	582.4
935.947	584.6
936.353	582.2
936.759	579.6
937.143	583
937.549	581
937.934	588.4
938.34	598.8
938.746	572.6
939.131	581.6
939.538	580.6
939.923	588
940.33	572.4
940.716	591
941.123	588.2
941.508	593.8
941.916	600.8
942.302	584.4
942.709	569.6
943.096	573.8
943.503	576.8
943.89	577.2
944.298	582.6
944.685	603
945.072	575.2
945.48	592.2
945.867	567
946.276	566.2
946.663	595.8
947.051	591.8
947.46	592
947.848	581.6
948.257	573.8
948.645	588.2
949.033	573.2
949.443	574.8
949.831	622
950.22	571.6
950.63	592.6
951.018	614.8
951.407	577.6
951.796	571.8
952.207	586
952.596	590.2
952.985	572.4
953.375	620.6
953.786	580
954.176	571.4
954.566	587.8
954.956	578.4
955.367	584.6
955.758	597.2
956.148	569.4
956.539	581.8
956.929	573.4
957.341	563.8
957.732	572.8
958.123	585.6
958.515	569.8
958.906	583
959.297	565.8
959.689	576.6
960.102	570.6
960.494	578.4
960.886	575.2
961.278	568.4
961.67	604.6
962.062	608.4
962.455	579.8
962.847	572.4
963.24	573.4
963.633	584.8
964.026	565.6
964.419	583.8
964.812	588.2
965.206	571.4
965.599	585
965.993	582.6
966.386	578.8
966.78	586
967.174	583.6
967.569	579.8
967.963	574.6
968.357	572.6
968.752	572
969.146	574.4
969.541	568.6
969.936	568.4
970.331	575.4
970.705	575
971.1	580.4
971.496	579.2
971.892	572.2
972.287	580.4
972.683	580.4
973.079	574
973.454	588.4
973.85	583.2
974.247	582
974.643	605.2
975.04	573.6
975.415	576
975.812	566.2
976.209	588.2
976.607	573
976.982	588
977.38	600.4
977.778	577
978.175	572.6
978.552	574.4
978.95	573.6
979.348	576.2
979.725	625.2
980.123	573.4
980.522	573.6
980.899	570.8
981.298	579
981.697	574.2
982.075	576.8
982.474	567
982.852	579
983.251	583.4
983.651	578.2
984.029	581.8
984.429	584.4
984.808	567.8
985.208	572.8
985.609	567.2
985.987	566
986.388	571.8
986.768	583
987.168	564.8
987.548	585.4
987.949	578.8
988.329	587.2
988.731	565
989.111	584
989.491	572
989.893	576
990.273	588
990.676	575.6
991.057	563
991.459	574.2
991.84	578.6
992.221	569.4
992.624	583.2
993.006	574
993.388	579.6
993.791	582.2
994.173	582.2
994.576	605
994.959	572.8
995.341	574.6
995.724	578.6
996.128	574.2
996.511	586.4
996.894	568
997.298	574.4
997.681	578.4
998.065	579.8
998.448	577
998.854	577.4
999.237	567
999.621	587.2
1000.01	588.6
1000.39	581.6
1000.8	582.6
1001.18	580.6
1001.56	586.8
1001.95	583.8
1002.33	588.8
1002.72	573.8
1003.13	576.4
1003.51	575.2
1003.9	571.2
1004.28	584.8
1004.67	570.6
1005.06	576.8
1005.44	615.8
1005.83	562.2
1006.21	569
1006.6	568.6
1006.99	578.2
1007.37	580
1007.76	583.8
1060.12	565.4
1060.51	566.8
1060.89	579.2
1061.28	592
1061.67	588.2
1062.06	580.2
1062.45	577.6
1062.83	567.6
1063.22	585.4
1063.61	606.6
1064	578.4
1064.39	571.4
1064.78	574.2
1065.14	578.4
1065.53	569.2
1065.92	570.2
1066.31	563.6
1066.7	576.6
1067.09	584
1067.46	574
1067.85	563.6
1068.24	566
1068.63	576.8
1069.02	573.8
1069.39	582.2
1069.78	566
1070.17	568.2
1070.57	571.2
1070.93	575.8
1071.33	573.2
1071.72	583.4
1072.11	572.6
1072.48	576.4
1072.87	578.4
1073.26	579.8
1073.64	568.8
1074.03	569.2
1074.4	576.4
1074.79	573.8
1075.19	579.6
1075.56	572
1075.95	579.8
1076.34	567.6
1076.72	569.8
1077.11	582.8
1077.48	597.8
1077.88	575.8
1078.25	576.2
1078.64	585.8
1079.02	585.4
1079.41	583.8
1079.78	576.4
1080.18	574.2
1080.55	634.2
1080.95	566.8
1081.32	573.8
1081.72	580.2
1082.09	567.8
1082.49	572.6
1082.86	577.2
1083.24	564
1083.63	567.8
1084.01	576
1084.38	590.6
1084.78	569.4
1085.16	574.6
1085.55	590
1085.93	587.4
1086.31	570.6
1086.7	604.6
1087.08	570.4
1087.46	576.4
1087.83	572
1088.23	590.8
1088.61	571
1088.99	579.8
1089.36	569.8
1089.76	573
1090.14	572.8
1090.52	575.2
1090.9	571.2
1091.27	590.4
1091.67	600
1092.05	586.4
1092.43	569.8
1092.81	581.6
1093.19	581.4
1093.57	567.8
1093.95	569.4
1094.35	592.8
1094.73	588.2
1095.11	568.4
1095.49	570.8
1095.87	570.2
1096.25	592.6
1096.63	584.4
1097.01	565.8
1097.39	576.8
1097.77	575.4
1098.15	571.6
1098.53	568.2
1098.91	566.6
1099.29	577
1099.68	589.6
1100.06	581
1100.44	580
1100.82	582.4
1101.18	584
1101.56	569.6
1101.95	569.4
1102.33	571
1102.71	581.4
1103.1	564.2
1103.48	567.2
1103.86	571.8
1104.22	578.6
1104.61	569.2
1104.99	575.2
1105.38	569.4
1105.76	580
1106.12	571
1106.51	610.6
1106.89	585.4
1107.26	576
1107.64	583.4
1108.03	568.6
1108.41	571.8
1108.78	581
1109.16	568.4
1109.55	581.6
1109.91	558.4
1110.3	564
1110.69	579.8
1111.05	568.6
1111.44	576.2
1111.8	585.8
1112.19	573.8
1112.58	571.8
1112.94	565.2
1113.33	568.8
1113.7	563.4
1114.09	567.6
1114.45	562.2
1114.84	573.4
1115.21	583.2
1115.6	568.4
1115.96	581
1116.35	581
1116.72	570.6
1117.11	584
1117.48	572.2
1117.85	579.6
1118.24	595.8
1118.6	578
1118.99	571.8
1119.36	580.8
1119.73	569.8
1120.12	577
1120.49	568
1120.86	575
1121.25	572.2
1121.62	557.8
1121.99	557.2
1122.38	587.2
1122.76	579
1123.13	572.6
1123.5	579.2
1123.89	598.6
1124.26	560
1124.63	577.8
1125	572
1125.4	567.2
1125.77	577.2
1126.14	553.2
1126.51	568
1126.88	573.2
1127.26	573
1127.63	559.2
1128.02	569
1128.4	571.2
1128.77	573
1129.14	576.8
1129.52	573.4
1129.89	581.8
1130.26	569.6
1130.64	568
1131.01	562.6
