#lambda/nm	C1
208.295	510.4
208.67	465.8
209.045	421.6
209.419	431.4
209.794	606.8
210.169	597.2
210.544	725.4
210.919	614
211.295	600.2
211.67	608.8
212.045	612.6
212.421	609.8
212.796	645.2
213.172	610
213.547	613.2
213.923	611.6
214.299	603.8
214.675	618
215.051	623.4
215.427	615.8
215.803	636.2
216.179	621
216.555	609.8
216.932	621.6
217.308	622.8
217.684	604.8
218.061	619.2
218.438	617.4
218.814	605
219.191	629.4
219.568	605.6
219.945	607.8
220.322	621.4
220.699	619.8
221.076	619.8
221.453	618.4
221.83	615
222.208	614.6
222.585	619
222.962	616.8
223.34	624.2
223.717	609
224.095	620.4
224.473	620.4
224.851	609.4
225.229	606
225.607	637.4
225.985	602.8
226.363	613.2
226.741	621.4
227.119	613.4
227.497	632.6
227.876	608.8
228.254	623.4
228.633	628.6
229.011	621.8
229.39	626.8
229.769	620.4
230.148	626.6
230.527	639.4
230.905	618.2
231.284	621.4
231.664	609.4
232.043	622.2
232.422	616.4
232.801	607.4
233.181	622.8
233.56	610.8
233.94	609.4
234.319	601
234.699	611.4
235.079	648
235.458	656.2
235.838	632.4
236.218	607.8
236.598	599.2
236.978	614.8
237.358	606.6
237.738	618.4
238.119	623.2
238.499	612.2
238.88	610.2
239.26	633.8
239.641	611
240.021	622.8
240.402	613.6
240.783	609.8
241.163	607.8
241.544	625.6
241.925	609.6
242.306	627
242.687	616.4
243.069	612.8
243.45	624.8
243.831	611.2
244.212	617.2
244.594	650
244.975	626.4
245.357	618.8
245.739	611.2
246.12	619.8
246.502	625.4
246.884	615.8
247.266	609.8
247.648	619.8
248.03	640.2
248.412	616.6
248.794	623.4
249.176	620.2
249.559	621.6
249.941	606.2
250.323	609
250.706	608.6
251.089	618
251.471	619.8
251.854	623.4
252.237	611.4
252.62	626.8
253.002	616.8
253.385	608.8
253.769	629.4
254.152	618.4
254.535	622.8
254.918	602.6
255.301	615.8
255.685	605.4
256.068	615
256.452	642.6
256.835	623.2
257.219	617.4
257.603	629.6
257.986	606.6
258.37	618.8
258.754	608
259.138	618.8
259.522	627.6
259.906	614.8
260.29	616.8
260.675	616
261.059	617.6
261.443	603
261.828	623.4
262.212	619.6
262.597	605.8
262.981	609.6
263.366	626.4
263.751	614.6
264.136	608.8
264.521	614.6
264.906	606.2
265.291	629.6
265.676	604.4
266.061	619.4
266.446	636.4
266.831	616.2
267.217	632.6
267.602	615.4
267.987	619.2
268.373	606
268.759	622.8
269.144	622.2
269.53	605
269.916	614.4
270.302	608.8
270.688	620.2
271.074	617.4
271.46	628
271.846	643.8
272.232	615.4
272.618	606.6
273.004	618
273.391	626.4
273.777	626.6
274.164	619.8
274.55	626.2
274.937	620
275.324	616.8
275.71	630
276.097	629
276.484	609
276.871	622.2
277.258	621.4
277.645	604.2
278.032	621.6
278.419	616.2
278.807	623.4
279.194	615.4
279.581	613
279.969	625
280.356	620.8
280.744	616.2
281.131	637.6
281.519	617.8
281.907	612
282.295	612.6
282.682	617.6
283.07	619.2
283.458	629.6
283.846	629.2
284.235	632.2
284.623	634.6
285.011	612.4
285.399	619.2
285.788	611.2
286.176	610.2
286.565	628.6
286.953	613.2
287.342	619.2
287.731	622.4
288.119	607.6
288.508	616.8
288.897	619
289.286	603
289.675	619.6
290.064	626
290.453	613.4
290.821	619.2
291.21	632.4
291.599	615.2
291.989	615.4
292.378	627.8
292.768	629.8
293.157	622.8
293.547	630
293.936	620
294.326	611.4
294.716	614.8
295.106	614.4
295.496	613.2
295.886	625.4
296.276	613
296.666	603.8
297.056	610.6
297.446	604
297.836	628.4
298.227	610.6
298.617	615.6
299.008	621.6
299.398	612.2
299.789	613.6
300.179	612.4
300.57	632.6
300.961	613.6
301.352	616.8
301.742	624.8
302.133	620.2
302.524	609.8
302.915	615.2
303.307	614.2
303.698	634.6
304.089	625.2
304.48	621.6
304.872	622.8
305.263	624.2
305.655	603.4
306.046	630.8
306.438	623.4
306.829	613.8
307.221	634.4
307.613	624.6
308.005	630.4
308.397	634
308.789	632.8
309.181	646.2
309.573	636
309.965	626.4
310.357	616.2
310.749	626.2
311.142	615.4
311.534	620.4
311.926	616.6
312.319	621.2
312.711	607
313.104	633.6
313.497	610.6
313.889	652
314.282	627.4
314.675	643.6
315.068	612
315.461	616.8
315.854	648.2
316.247	627.8
316.64	624.8
317.033	619
317.405	627.6
317.798	617.6
318.192	610.6
318.585	605.4
318.979	624.2
319.372	611.6
319.766	619.6
320.16	632.8
320.553	634.6
320.947	639.2
321.341	614.4
321.735	621
322.129	607.6
322.523	640.2
322.917	620.2
323.311	622.2
323.705	624.4
324.099	621.8
324.494	630.4
324.888	627.8
325.282	615
325.677	619.4
326.071	626.4
326.466	632.8
326.861	621.6
327.255	629
327.65	629.4
328.045	634.8
328.44	618.6
328.835	612.2
329.23	611.2
329.625	642.4
330.02	614.8
330.415	641.8
330.81	624.4
331.206	620.4
331.601	612
331.996	629.6
332.37	642.8
332.766	608.4
333.161	643
333.557	620
333.953	617.8
334.348	903.8
334.744	617
335.14	612.6
335.536	617.8
335.932	633.2
336.328	620
336.724	628.8
337.12	609.8
337.516	624.2
337.913	616.2
338.309	627.6
338.705	619.6
339.102	631.8
339.498	612.8
339.895	625.4
340.291	613.4
340.688	626
341.085	614.6
341.481	613.2
341.878	615.6
342.275	631.8
342.672	616.8
343.069	611
343.466	601.6
343.842	620.2
344.239	609
344.636	618.2
345.033	606.4
345.431	609.4
345.828	619.4
346.225	608.4
346.623	642.8
347.02	611.6
347.418	625.4
347.816	631.6
348.213	604.2
348.611	623.4
349.009	599
349.407	626.6
349.805	601.6
350.203	607.8
350.601	633.8
350.999	606.6
351.397	663.6
351.795	616.6
352.193	620.2
352.57	625.2
352.969	623.6
353.367	606.8
353.766	610.4
354.164	623.2
354.563	619.2
354.961	628.2
355.36	607
355.759	609.4
356.158	606
356.557	603
356.956	604.4
357.355	602.6
357.754	610
358.153	619.6
358.552	642.8
358.951	619
359.35	622.8
359.75	609.2
360.149	601.4
360.527	600.4
360.926	608.8
361.326	617.8
361.726	608
362.125	607.2
362.525	618.4
362.925	598.8
363.325	602.6
363.724	612.2
364.124	607
364.524	608.4
364.924	618.6
365.324	625.2
365.725	602.2
366.125	619
366.525	612.2
366.904	603
367.304	595.2
367.705	625
368.105	620.8
368.506	602.2
368.906	615
369.307	613.6
369.708	611.8
370.108	598.6
370.509	619.4
370.91	607.4
371.311	620.2
371.712	614.6
372.113	618
372.514	605.2
372.894	611.6
373.295	613.2
373.696	618.4
374.097	621
374.499	649.2
374.9	611.8
375.301	608.2
375.703	610.2
376.105	599.2
376.506	613.2
376.908	609.6
377.309	610.6
377.711	614.4
378.113	600.4
378.493	614
378.895	604.6
379.297	617.2
379.699	599.4
380.102	611.6
380.504	602.8
380.906	606.4
381.308	643.6
381.71	610.2
382.113	615.4
382.515	611.6
382.918	612
383.299	601
383.701	608.6
384.104	617.2
384.507	591.4
384.909	605.8
385.312	596.2
385.715	604.8
386.118	610.4
386.521	605.4
386.924	616.8
387.327	601.4
387.709	600
388.112	594.2
388.515	601.4
388.918	611.4
389.322	616
389.725	604.6
390.129	630.2
390.532	618.4
390.936	604
391.339	597.6
391.743	614.2
392.125	606
392.529	613.6
392.933	618.6
393.337	610.4
393.74	607.6
394.144	607
394.548	603.2
394.953	611.6
395.357	612.4
395.761	604.6
396.144	613.2
396.548	611.8
396.952	606.2
397.357	611.2
397.761	610
398.166	604.6
398.57	614.6
398.975	603.4
399.379	612.8
399.763	662.6
400.168	611.6
400.572	597.2
400.977	604.6
401.382	625.4
401.787	619.4
402.192	624
402.597	629.4
403.002	603.8
403.386	616
403.791	618.6
404.197	599.6
404.602	602.6
405.007	606.2
405.413	604
405.818	605.2
406.224	596.2
406.608	600.4
407.014	607.8
407.42	626.4
407.825	605.8
408.231	611.4
408.637	616.2
409.043	625
409.449	599.8
409.834	595.2
410.24	605.6
410.646	612.4
411.052	611.8
411.458	618.8
411.865	615.8
412.271	617.6
412.677	610.4
413.062	614.4
413.469	596.4
413.875	621.6
414.282	623.6
414.689	613.8
415.095	612
415.502	597.6
415.888	608.4
416.294	599
416.701	646.4
417.108	603.2
417.515	621.8
417.923	604.8
418.33	631.8
418.715	623.2
419.123	607.8
419.53	611.6
419.937	614.2
420.345	623.2
420.752	606.4
421.16	622
421.546	611.8
421.953	607.8
422.361	596.6
422.769	607
423.177	607.6
423.585	639.8
423.992	630.2
424.379	628.2
424.787	623.2
425.195	634
425.603	607.4
426.011	623.2
426.419	630.4
426.806	611.4
427.214	616.8
427.623	620.8
428.031	627.8
428.44	607.8
428.848	623
429.235	631.6
429.644	615.8
430.053	618
430.461	632.2
430.87	645
431.279	628
431.666	612.2
432.075	636.2
432.484	628.4
432.893	632.6
433.302	668.2
433.711	672.4
434.099	652.2
434.508	651.2
434.918	647
435.327	663
435.737	668.4
436.125	663.8
436.534	678.8
436.944	687
437.353	689.2
437.763	720
438.173	696.2
438.561	720.6
438.971	708.6
439.381	726.6
439.791	732.2
440.201	714.6
440.589	738.6
440.999	748
441.409	748.6
441.819	751.2
442.23	769.2
442.619	776.6
443.029	778.4
443.439	785.4
443.85	793.6
444.26	805.6
444.649	801.8
445.06	799.4
445.471	795.6
445.881	805.6
446.292	821.8
446.682	827.2
447.092	803.6
447.503	862.8
447.914	829.6
448.325	823.2
448.715	835
449.126	832.4
449.537	840.8
449.948	838.2
450.338	836
450.75	845
451.161	844.2
451.572	864.8
451.984	850
452.374	839
452.786	854.2
453.197	853
453.609	858.4
453.999	854.8
454.411	845.6
454.823	870.2
455.235	851
455.647	851.4
456.037	872.8
456.449	853.2
456.862	855.2
457.274	860.6
457.665	847.4
458.077	863.6
458.489	878
458.902	856.2
459.293	867
459.705	876.8
460.118	864.6
460.53	876
460.921	874.2
461.334	883.4
461.747	871.4
462.16	898
462.551	876.4
462.964	880.6
463.377	861.8
463.79	870.2
464.182	880.6
464.595	859.4
465.008	877.8
465.421	876.8
465.813	876.8
466.226	876
466.64	879
467.053	920.6
467.445	884.8
467.859	894.4
468.272	894
468.686	897.4
469.078	887
469.492	871.6
469.906	887.2
470.298	887.8
470.712	882
471.126	931.8
471.54	871.4
471.933	873.4
472.347	872.8
472.761	874
473.175	865.8
473.568	883.2
473.982	867.6
474.397	874.8
474.79	871
475.204	879.4
475.619	874
476.033	872.8
476.426	871.8
476.841	871.2
477.256	895.6
477.649	860.4
478.064	861.2
478.479	862.2
478.872	861.2
479.287	841
479.702	872.6
480.118	866
480.511	858.2
480.927	861
481.342	851.4
481.736	857
482.151	848.6
482.566	863.8
482.96	861
483.376	865
483.792	853.4
484.186	863.6
484.602	842.6
485.017	850.4
485.412	858.8
485.827	856.4
486.243	844
486.638	875.2
487.054	847.6
487.47	843.2
487.865	842.4
488.281	834.2
488.697	834.2
489.092	826.6
489.508	836.4
489.925	846.2
490.32	828.2
490.736	844.4
491.153	829.6
491.548	823.8
491.964	831.6
492.381	814.8
492.776	825
493.193	825.6
493.61	829.4
494.006	818.4
494.422	817.2
494.84	809.4
495.235	824.6
495.652	816.8
496.069	805.8
496.465	799.2
496.883	801.8
497.3	832.8
497.696	802.4
498.113	812.8
498.509	793
498.927	782
499.344	793
499.741	784
500.158	807.8
500.576	803
500.973	796.8
501.39	783.2
501.787	780.4
502.205	785.4
502.623	767.6
503.02	765.8
503.438	774.6
503.856	773
504.253	788.6
504.671	762.4
505.068	762.6
505.486	757.6
505.905	784.2
506.302	764
506.72	787.4
507.118	748.4
507.536	767.4
507.955	759.2
508.352	764.6
508.771	764.2
509.169	764.8
509.587	746
510.006	745.8
510.404	739
510.823	753.2
511.221	750.2
511.64	748.6
512.038	767.6
512.457	739
512.877	737.2
513.275	742.6
513.694	736
514.092	741.2
514.512	744.4
514.91	739
515.33	731
515.749	734.2
516.148	742.8
516.568	737.8
516.966	729.2
517.386	730.8
517.785	730.8
518.205	722.4
518.603	713.4
519.024	715.6
519.444	724.4
519.843	736.6
520.263	728.6
520.662	724.8
521.082	714.8
521.481	721.2
521.902	717.4
522.301	720.6
522.722	717.6
523.121	703.6
523.542	708.6
523.963	705.4
524.362	713.4
524.783	711.6
525.183	706.6
525.604	703.4
526.003	703.2
526.425	697.8
526.824	702.4
527.246	709.8
527.646	702.2
528.067	696.8
528.467	701.4
528.888	699.6
529.289	693.4
529.71	681.2
530.11	683.8
530.532	679.2
530.932	678.6
531.354	674.8
531.755	721.8
532.176	689
532.577	682.8
532.999	681.2
533.4	680.6
533.822	686.6
534.223	697.2
534.645	682.6
535.046	678
535.468	679.8
535.869	687.8
536.292	667.4
536.693	705.2
537.115	683.8
537.516	673.2
537.939	663.2
538.34	680
538.742	685
539.165	669.6
539.566	677
539.989	662
540.391	669.2
540.814	676.6
541.216	676.4
541.639	668.8
542.041	671.6
542.464	669.8
542.866	661
543.268	662.4
543.691	672.2
544.093	674.2
544.517	685.8
544.919	657.4
545.343	680.4
545.745	655.6
546.147	666
546.571	658.4
546.974	644.4
547.398	653.6
547.8	666.4
548.224	644.4
548.627	652.2
549.03	665.4
549.454	652.2
549.857	637.8
550.281	649.4
550.684	644.6
551.087	665.4
551.512	660.6
551.915	654
552.34	653
552.743	645.6
553.146	650.6
553.571	647.8
553.975	664.2
554.399	641
554.803	696.8
555.207	642
555.632	639.8
556.036	650.2
556.461	643.2
556.865	648
557.268	636.6
557.694	635.8
558.098	654.2
558.502	643
558.927	639
559.332	635.8
559.736	636
560.162	645.6
560.566	640.6
560.992	647.4
561.396	633.2
561.801	640.8
562.227	630.4
562.631	634.8
563.036	626.4
563.462	642
563.867	632.8
564.272	626.2
564.698	642.4
565.103	630.4
565.508	654.6
565.935	634.4
566.34	632.2
566.745	652
567.172	630.4
567.577	647.4
567.982	647.8
568.409	638
568.815	618.6
569.22	634.2
569.626	634.8
570.053	612
570.459	623.6
570.865	628.2
571.292	635.4
571.698	629.6
572.104	611.8
572.531	612.6
572.937	634.2
573.343	624.2
573.75	619.8
574.177	614.6
574.583	629.6
574.99	623.6
575.396	626
575.824	617.2
576.231	626.6
576.637	611.4
577.065	650.2
577.472	616.6
577.879	618.8
578.286	631.2
578.714	618.6
579.121	613.2
579.528	624.6
579.935	634.6
580.364	620.6
580.771	604.2
581.178	613.2
581.585	622.2
582.014	625.8
582.421	617.2
582.829	621.4
583.236	619.2
583.644	603.4
584.073	613.4
584.481	602.8
584.889	609.4
585.296	615.8
585.726	616.6
586.134	605
586.542	608
586.95	636.2
587.358	604.2
587.787	615.2
588.196	622
588.604	605.6
589.012	604.6
589.421	606
589.851	600
590.259	611.2
590.668	604.4
591.076	645
591.485	604.6
591.894	604.4
592.324	623
592.733	621.6
593.142	596.6
593.551	605.6
593.96	611.2
594.369	597.6
594.8	597.2
595.209	609.6
595.618	590
596.028	606.6
596.437	601.2
596.847	608.2
597.256	604.8
597.687	612
598.097	598.8
598.507	590
598.917	605.6
599.327	611.2
599.736	603.6
600.146	609.2
600.556	595
600.988	610.2
601.398	591.6
601.808	613.8
602.219	594.2
602.629	600.2
603.039	601.4
603.45	633.8
603.86	603.4
604.271	615.2
604.703	599.8
605.114	606
605.525	600.8
605.935	615.2
606.346	619
606.757	604
607.168	595.8
607.579	599.8
607.99	618.2
608.402	600.8
608.813	606.4
609.224	606.6
609.636	594.6
610.047	602.8
610.48	600
610.892	607.2
611.303	610
611.715	595.6
612.127	598.8
612.539	600.4
612.95	607
613.362	592
613.774	590.2
614.186	600
614.599	598.8
615.011	614.2
615.423	602.2
615.835	600.2
616.248	596.4
616.66	606.6
617.073	590.2
617.485	595
617.898	603.8
618.311	604.8
618.723	596.8
619.136	627.2
619.549	621.4
619.962	618.6
620.375	601.2
620.788	602.6
621.201	602.8
621.614	607
622.028	596.2
622.441	597.6
622.854	614.6
623.268	592.8
623.681	603.6
624.095	602.6
624.509	610.4
624.922	606.2
625.336	597.4
625.728	600.6
626.142	609
626.556	620.2
626.97	607.4
627.384	602
627.799	591
628.213	613
628.627	593.8
629.041	598.2
629.456	600.4
629.87	592.6
630.285	616
630.699	615
631.093	599.4
631.507	601.8
631.922	605.2
632.337	603
632.752	591
633.167	601.6
633.582	599.2
633.997	592.8
634.412	592.4
634.806	598.8
635.221	586
635.637	603
636.052	588.6
636.468	598
636.883	611.8
637.299	603
637.715	586.8
638.109	592.6
638.525	587
638.941	607.4
639.357	605.6
639.773	599.8
640.189	592.6
640.584	596.2
641	590.6
641.416	589.6
641.832	592.8
642.249	593.4
642.665	592.6
643.06	597
643.477	601
643.894	585.2
644.31	599.8
644.727	591.4
645.123	599.8
645.54	585.2
645.957	593.6
646.374	612.2
646.77	597.8
647.187	622.6
647.604	587
648.021	579.4
648.439	582.8
648.835	600.4
649.252	594
649.67	591.4
650.088	596.4
650.484	598
650.902	597.4
651.32	589.8
651.738	594.8
652.134	598.6
652.552	614.4
652.971	598
653.389	592.4
653.786	606.6
654.204	609.8
654.622	593
655.019	590.6
655.438	602
655.857	602.4
656.275	598.8
656.673	588.8
657.091	598
657.51	594.4
657.908	599.2
658.327	610.8
658.746	586.8
659.144	588.6
659.563	613.6
659.982	600.4
660.38	589.2
660.8	594.6
661.219	603
661.617	598
662.037	594.6
662.457	614.6
662.855	582.8
663.275	621.6
663.695	598
664.094	590.6
664.514	596
664.934	582.4
665.333	604.4
665.753	587.2
666.152	580
666.572	586.2
666.993	599
667.392	590.6
667.812	587
668.212	591.2
668.632	601
669.053	588
669.453	599
669.874	592.8
670.273	596.8
670.694	585.6
671.116	597.4
671.515	600.6
671.937	589.2
672.337	594.2
672.758	588.2
673.158	600.4
673.58	574.6
673.98	589.2
674.402	605.6
674.824	582.2
675.224	588.2
675.646	583.4
676.047	596.6
676.469	596.2
676.869	603.4
677.292	589
677.693	588.2
678.115	584.4
678.516	593.2
678.939	599.6
679.34	584.6
679.762	596.4
680.164	601.8
680.586	582
680.988	593.2
681.411	614.8
681.812	580.8
682.236	581.6
682.637	583
683.061	577.6
683.462	591
683.864	584.8
684.288	593.6
684.69	584.4
685.114	602.8
685.516	602.8
685.94	577
686.342	593.2
686.766	583
687.168	587
687.571	607.2
687.995	588.6
688.398	585
688.822	584.4
689.225	607.2
689.628	607.2
690.052	583.4
690.456	598.6
690.88	584.2
691.284	578.2
691.687	596.6
692.112	575.8
692.515	580.4
692.919	594.2
693.344	592.6
693.747	590.2
694.173	581.2
694.577	595.2
694.98	593.2
695.406	586.8
695.81	601.2
696.214	590.2
696.64	594.2
697.044	595.4
697.448	593.4
697.874	587.6
698.279	581.6
698.684	574
699.11	579.6
699.514	586.8
699.919	579.2
700.324	578.8
700.75	589
701.156	582.2
701.561	604
701.987	595.2
702.393	594.2
702.798	599
703.203	586.8
703.63	581.8
704.036	593.2
704.442	586.6
704.847	584.8
705.274	581
705.68	597.6
706.086	594.4
706.492	576.8
706.92	579.4
707.326	595.4
707.732	585.2
708.139	580.4
708.545	586.8
708.973	585
709.38	586.8
709.786	584.2
710.193	604
710.6	591
711.028	577.2
711.435	582.6
711.842	587.4
712.249	584.6
712.656	582.8
713.064	607.4
713.492	580.6
713.9	596.2
714.307	592.6
714.715	588.8
715.123	590.6
715.53	590.6
715.938	595.8
716.367	594.2
716.775	593.4
717.184	581
717.592	582
718	603.2
718.408	618.8
718.816	627.4
719.225	588.4
719.633	591.2
720.042	578.6
720.472	591.2
720.881	607.4
721.29	595.8
721.699	582.8
722.108	589.4
722.517	587.2
722.926	592.8
723.335	590
723.744	587.4
724.154	589
724.563	586.6
724.973	593.2
725.382	591.2
725.792	586.8
726.202	580.8
726.612	607.6
727.022	586.8
727.432	582.8
779.813	590.4
780.223	627
780.634	585.6
781.044	578.4
781.454	582.6
781.865	597.2
782.276	575
782.686	592.2
783.097	579.4
783.508	590.8
783.919	583.8
784.33	597.4
784.741	605.2
785.152	580
785.563	571.2
785.974	575.8
786.386	598.6
786.776	582.4
787.188	583.2
787.599	574.6
788.011	593.6
788.423	593.8
788.835	586.2
789.247	576.2
789.659	588.4
790.071	588.4
790.483	626.8
790.874	580.2
791.286	593.6
791.699	583.2
792.111	584.2
792.524	583.2
792.937	583.2
793.349	570.2
793.741	582
794.154	579.2
794.567	597.2
794.98	584.2
795.393	580.8
795.785	597.8
796.198	581
796.612	586.6
797.026	575
797.439	570.8
797.831	585.4
798.245	574
798.659	576.2
799.073	575.8
799.487	581.8
799.88	579.6
800.294	584.8
800.708	587.4
801.123	583.2
801.516	608
801.93	574.2
802.345	570.8
802.76	585
803.153	598.6
803.568	598.8
803.983	593.6
804.377	593.8
804.792	575.4
805.207	573
805.601	585.4
806.016	621.6
806.432	578.8
806.826	615.4
807.242	595.6
807.658	591.6
808.052	585.2
808.468	582.4
808.884	577.8
809.279	588.4
809.695	593.2
810.111	606.8
810.506	590.4
810.922	609.6
811.339	587
811.734	598
812.151	578.6
812.546	576.2
812.963	581
813.38	587
813.776	577.6
814.193	599.6
814.589	574.6
815.006	577.4
815.402	582
815.82	582.6
816.237	577.6
816.633	601
817.051	582.8
817.448	591
817.866	576.8
818.262	607.4
818.68	587
819.077	575.2
819.495	579
819.892	628.8
820.311	581.4
820.708	578
821.127	577.8
821.524	594.4
821.943	583.4
822.34	605.4
822.759	586.6
823.157	584.6
823.576	595.8
823.974	594.8
824.393	608
824.791	566.8
825.189	573.2
825.609	583.4
826.007	581.6
826.427	576.6
826.826	582
827.246	586
827.644	576.8
828.043	599
828.463	576.2
828.862	590.2
829.261	585.4
829.682	575
830.081	584.8
830.502	575.2
830.901	581.6
831.301	599
831.722	568
832.121	583.6
832.521	574
832.943	585.8
833.342	578.8
833.742	569.6
834.164	583
834.564	575.6
834.965	584.4
835.386	583.6
835.787	576.4
836.188	574.2
836.588	588.2
837.01	578.6
837.411	575.8
837.812	593.6
838.213	596.4
838.636	574.8
839.037	645.6
839.438	589.6
839.84	580.6
840.263	584
840.664	582.8
841.066	577.2
841.468	579.8
841.891	578.8
842.293	589.8
842.695	584.8
843.098	596
843.5	582.6
843.902	586.4
844.326	588.8
844.729	579.8
845.131	592.4
845.534	583.4
845.937	603.2
846.34	596.6
846.764	581.6
847.167	588.6
847.571	577.4
847.974	581
848.377	576
848.781	631.4
849.184	590
849.588	579.4
849.992	579.8
850.396	579.2
850.821	597
851.225	581
851.63	577
852.034	590.8
852.438	583.4
852.843	666.2
853.247	568.2
853.652	575.6
854.057	599.6
854.462	584.2
854.867	589.4
855.272	611
855.677	593.4
856.082	579.8
856.487	568.8
856.893	589.6
857.298	578.6
857.704	581.2
858.11	589.6
858.516	589.2
858.922	582.6
859.328	592.4
859.734	582.8
860.14	589.4
860.525	586.8
860.931	575.4
861.338	588.8
861.745	584.2
862.151	584.6
862.558	582
862.965	573.2
863.372	577.2
863.779	568.8
864.186	606.8
864.572	581.8
864.98	597
865.387	611.4
865.795	587.4
866.203	590.8
866.61	572.8
867.018	586.8
867.405	595
867.813	577.2
868.221	582
868.63	578.6
869.038	594.8
869.425	615.8
869.834	583.2
870.243	578.2
870.652	581.8
871.039	580.6
871.448	578.8
871.857	590
872.266	594
872.654	583.2
873.064	575.8
873.473	588.2
873.883	580.8
874.271	575.6
874.681	588.4
875.091	571.8
875.48	592.6
875.89	602.2
876.3	576.4
876.689	563.8
877.1	580.4
877.51	578.4
877.9	598
878.31	579.6
878.721	609.2
879.111	580.6
879.522	573.6
879.933	571.6
880.323	568.4
880.734	572
881.125	590.8
881.536	576
881.948	578.8
882.338	578
882.75	580.6
883.141	582
883.553	579.4
883.944	605.6
884.356	589
884.769	576.2
885.16	584.2
885.573	588
885.964	580.4
886.377	579
886.768	567
887.181	576.2
887.573	571
887.987	583.4
888.378	593.6
888.792	578.8
889.184	628.6
889.598	572.6
889.99	583.8
890.383	574.6
890.797	574.4
891.19	590
891.604	579.2
891.997	568.6
892.411	576.4
892.805	576.8
893.198	584
893.613	570.6
894.006	585.2
894.421	573.2
894.815	582
895.209	575.4
895.624	627
896.018	603.4
896.412	572.4
896.828	582.2
897.222	576.2
897.617	577
898.033	599.4
898.427	582
898.822	574.8
899.239	568.2
899.634	574.8
900.029	598.8
900.424	574.2
900.841	577
901.236	592.2
901.632	585.6
902.027	645.6
902.445	586.4
902.841	580.8
903.237	583
903.633	590.2
904.05	590.2
904.447	589.6
904.843	587.4
905.24	583.8
905.636	568.8
906.033	577.2
906.451	589
906.848	571.8
907.246	576
907.643	577.6
908.04	581.6
908.438	592.6
908.835	585.8
909.254	575.6
909.652	582.4
910.05	577.8
910.448	574.8
910.846	584
911.244	564.8
911.643	587
912.041	582.6
912.44	592
912.839	570.4
913.237	583.8
913.636	571
914.035	585
914.434	574.2
914.834	589.8
915.233	586.2
915.633	572.8
916.032	569
916.432	570
916.832	586.2
917.232	569.8
917.632	562
918.032	581.8
918.432	579.4
918.833	574.6
919.233	581.8
919.634	577.6
920.035	586.6
920.436	570.6
920.837	587.2
921.238	581.2
921.639	575.6
922.019	581.2
922.42	577.2
922.822	588.6
923.224	587
923.625	575.6
924.027	585
924.429	593.2
924.81	585
925.212	572.6
925.615	578.8
926.017	579
926.42	594.6
926.801	569.4
927.204	583
927.607	578.6
928.01	582.6
928.413	578.8
928.795	568.6
929.199	575.2
929.602	578.6
930.006	578
930.388	571.8
930.792	581.6
931.196	575.6
931.579	606.2
931.983	573.6
932.388	630.6
932.771	576.4
933.176	569
933.58	583.2
933.964	589.2
934.369	577.4
934.774	581.6
935.158	579.6
935.563	577.4
935.947	572.4
936.353	589.6
936.759	569.4
937.143	586.8
937.549	583.4
937.934	588.8
938.34	606.2
938.746	579.4
939.131	574.6
939.538	575.6
939.923	587.6
940.33	573.2
940.716	585.8
941.123	576.8
941.508	582.2
941.916	590
942.302	580.8
942.709	570.8
943.096	575.4
943.503	581.8
943.89	580.6
944.298	572.8
944.685	609.6
945.072	573.4
945.48	589
945.867	570.8
946.276	575.4
946.663	594.8
947.051	600.8
947.46	586.8
947.848	581
948.257	577.8
948.645	576.4
949.033	567.2
949.443	572.6
949.831	620
950.22	572.4
950.63	584.4
951.018	605
951.407	587.4
951.796	575.2
952.207	583.4
952.596	586
952.985	573
953.375	619
953.786	582.2
954.176	565.8
954.566	591
954.956	567
955.367	572.8
955.758	597.4
956.148	561.4
956.539	596.4
956.929	564.2
957.341	579.4
957.732	580.4
958.123	585
958.515	565.2
958.906	583.8
959.297	573.8
959.689	577.4
960.102	570.4
960.494	578.2
960.886	574.6
961.278	576
961.67	596.4
962.062	613.4
962.455	573
962.847	576.6
963.24	577.6
963.633	579.6
964.026	567.8
964.419	579.6
964.812	588
965.206	581.6
965.599	579
965.993	582.6
966.386	574.8
966.78	590.4
967.174	592.8
967.569	574.2
967.963	577.8
968.357	567.2
968.752	571.2
969.146	576
969.541	574.4
969.936	574.4
970.331	583.8
970.705	570.6
971.1	573.8
971.496	587.8
971.892	570.8
972.287	579.2
972.683	571.8
973.079	571.8
973.454	583.8
973.85	581.4
974.247	585.6
974.643	605.6
975.04	581
975.415	579.8
975.812	571.8
976.209	574.8
976.607	571.8
976.982	590.8
977.38	588.8
977.778	575.2
978.175	575.4
978.552	579
978.95	583.2
979.348	581
979.725	625.8
980.123	571.4
980.522	575.2
980.899	569
981.298	571.2
981.697	582.6
982.075	580.4
982.474	571.2
982.852	581.2
983.251	581.2
983.651	578.2
984.029	576.6
984.429	579
984.808	559
985.208	577.8
985.609	567.2
985.987	557.6
986.388	568.4
986.768	576.6
987.168	563.6
987.548	576.8
987.949	578.4
988.329	582.8
988.731	571.8
989.111	573.6
989.491	579
989.893	573
990.273	592.8
990.676	573.8
991.057	564.4
991.459	576.4
991.84	576.8
992.221	564.8
992.624	591.4
993.006	582.2
993.388	575.2
993.791	571.2
994.173	585.6
994.576	607
994.959	570.6
995.341	575.6
995.724	585.4
996.128	574.8
996.511	574.6
996.894	573.4
997.298	581.4
997.681	586.2
998.065	581
998.448	572.8
998.854	582.4
999.237	569.6
999.621	588.2
1000.01	590.8
1000.39	582
1000.8	576.6
1001.18	584
1001.56	579
1001.95	579.8
1002.33	577.6
1002.72	583.2
1003.13	575.8
1003.51	571.4
1003.9	569
1004.28	587.2
1004.67	571
1005.06	581
1005.44	611.8
1005.83	567.4
1006.21	571.2
1006.6	572.8
1006.99	576
1007.37	583.8
1007.76	582.6
1060.12	563.4
1060.51	571.6
1060.89	581.4
1061.28	583
1061.67	586.4
1062.06	572
1062.45	589.8
1062.83	571.4
1063.22	588.8
1063.61	613
1064	581.8
1064.39	576.6
1064.78	580.8
1065.14	583.2
1065.53	578.2
1065.92	575.8
1066.31	572.6
1066.7	581.8
1067.09	582.2
1067.46	582.6
1067.85	562.8
1068.24	571.8
1068.63	577.6
1069.02	571.6
1069.39	575.6
1069.78	574.6
1070.17	567.8
1070.57	570
1070.93	582
1071.33	574
1071.72	585.6
1072.11	567.2
1072.48	567.2
1072.87	575.8
1073.26	569.2
1073.64	573
1074.03	564.6
1074.4	574.4
1074.79	569
1075.19	572.4
1075.56	571
1075.95	576.2
1076.34	578.6
1076.72	567.6
1077.11	577.6
1077.48	586
1077.88	579.8
1078.25	573.8
1078.64	582.2
1079.02	575
1079.41	590
1079.78	565
1080.18	572.4
1080.55	635.8
1080.95	565
1081.32	570.4
1081.72	574
1082.09	570.8
1082.49	565.6
1082.86	576.8
1083.24	561.4
1083.63	569.8
1084.01	571.6
1084.38	581.6
1084.78	571.6
1085.16	573.4
1085.55	584.8
1085.93	593.8
1086.31	574.2
1086.7	598.8
1087.08	586
1087.46	579.8
1087.83	566
1088.23	581.6
1088.61	574.4
1088.99	574.6
1089.36	572.6
1089.76	574.2
1090.14	574.8
1090.52	573.2
1090.9	579.4
1091.27	592
1091.67	597.8
1092.05	579.6
1092.43	578.2
1092.81	580.2
1093.19	580.8
1093.57	569.4
1093.95	573.8
1094.35	581.4
1094.73	592.8
1095.11	562
1095.49	581.8
1095.87	576.8
1096.25	582
1096.63	583.6
1097.01	574.4
1097.39	578.2
1097.77	576
1098.15	576.6
1098.53	574
1098.91	567.8
1099.29	576.4
1099.68	598.4
1100.06	580.4
1100.44	571.6
1100.82	582.4
1101.18	584
1101.56	575
1101.95	575.8
1102.33	575
1102.71	576.8
1103.1	563.8
1103.48	573.2
1103.86	574.2
1104.22	577
1104.61	582.2
1104.99	570
1105.38	570.4
1105.76	577.4
1106.12	570.6
1106.51	610.8
1106.89	583.2
1107.26	575.2
1107.64	584.8
1108.03	568.8
1108.41	572.8
1108.78	575.4
1109.16	580.6
1109.55	582.6
1109.91	564.8
1110.3	553.2
1110.69	591.2
1111.05	573
1111.44	563
1111.8	573.8
1112.19	576
1112.58	577.6
1112.94	569.4
1113.33	571
1113.7	569.4
1114.09	575.6
1114.45	564.2
1114.84	576
1115.21	580.8
1115.6	565.6
1115.96	577.6
1116.35	577.4
1116.72	569.8
1117.11	581.4
1117.48	567.6
1117.85	576.8
1118.24	584
1118.6	572.2
1118.99	572.6
1119.36	579.4
1119.73	568.8
1120.12	572.2
1120.49	563.4
1120.86	584.4
1121.25	576.4
1121.62	562.8
1121.99	568.2
1122.38	583.8
1122.76	574.2
1123.13	563
1123.5	576.6
1123.89	580
1124.26	563.2
1124.63	571.8
1125	578.4
1125.4	566.4
1125.77	562.4
1126.14	556.4
1126.51	568.8
1126.88	576.4
1127.26	571.8
1127.63	560.4
1128.02	565.8
1128.4	568.6
1128.77	567.4
1129.14	564.6
1129.52	574.6
1129.89	576.6
1130.26	564.4
1130.64	567
1131.01	571
