#lambda/nm	C1
208.295	513.2
208.67	469.2
209.045	430.2
209.419	435
209.794	612
210.169	599
210.544	710.8
210.919	613
211.295	606.2
211.67	614
212.045	613.4
212.421	612.2
212.796	652.6
213.172	611.4
213.547	604.4
213.923	604.8
214.299	610
214.675	618.2
215.051	620.4
215.427	617
215.803	639.4
216.179	626.2
216.555	606
216.932	625.2
217.308	619.2
217.684	615.2
218.061	627.2
218.438	620
218.814	611
219.191	623
219.568	607.6
219.945	609.6
220.322	622.2
220.699	619.2
221.076	622.8
221.453	616
221.83	602.2
222.208	612
222.585	614
222.962	615.6
223.34	626
223.717	619.4
224.095	619.6
224.473	623.6
224.851	614
225.229	605.8
225.607	627.2
225.985	607
226.363	615
226.741	620.6
227.119	623.6
227.497	623.8
227.876	609
228.254	617.8
228.633	625
229.011	614.6
229.39	615.4
229.769	617.4
230.148	629
230.527	630.8
230.905	615
231.284	620.6
231.664	614
232.043	631.6
232.422	623.8
232.801	615
233.181	617.4
233.56	607.4
233.94	614
234.319	602.4
234.699	614
235.079	660.6
235.458	652.4
235.838	633.4
236.218	610.2
236.598	604.2
236.978	611.4
237.358	614
237.738	618
238.119	623.6
238.499	610
238.88	622.4
239.26	624.8
239.641	604
240.021	610.2
240.402	625.4
240.783	616.4
241.163	610.2
241.544	615
241.925	613.2
242.306	637.8
242.687	619.2
243.069	620.6
243.45	625.2
243.831	609.6
244.212	612.6
244.594	664.2
244.975	636.4
245.357	625
245.739	605.8
246.12	617.8
246.502	625.2
246.884	616.2
247.266	618.6
247.648	619.4
248.03	649.2
248.412	620.2
248.794	623
249.176	615.2
249.559	632
249.941	612.8
250.323	604.8
250.706	610.2
251.089	607.6
251.471	622.6
251.854	610.6
252.237	615.8
252.62	625.6
253.002	614.8
253.385	611.6
253.769	632.8
254.152	617.8
254.535	622.8
254.918	605.6
255.301	613.4
255.685	605.2
256.068	604.2
256.452	637.2
256.835	616.4
257.219	608
257.603	621.4
257.986	608.2
258.37	626.2
258.754	606.4
259.138	616
259.522	625.8
259.906	612.6
260.29	616.2
260.675	609.8
261.059	623.2
261.443	608.4
261.828	627.2
262.212	617.2
262.597	610.8
262.981	615.2
263.366	617.2
263.751	613
264.136	619.2
264.521	622
264.906	605.2
265.291	624.6
265.676	603
266.061	619.2
266.446	626.6
266.831	611.8
267.217	629.8
267.602	614.6
267.987	617.6
268.373	610.4
268.759	625
269.144	613
269.53	605
269.916	607.4
270.302	615.4
270.688	610.4
271.074	617.8
271.46	627.2
271.846	649.4
272.232	619.8
272.618	607
273.004	612.4
273.391	621.8
273.777	633.4
274.164	627
274.55	639.4
274.937	622.4
275.324	619.2
275.71	619.4
276.097	618.4
276.484	618.8
276.871	625
277.258	611
277.645	600.6
278.032	615
278.419	604.8
278.807	623
279.194	605.8
279.581	605.2
279.969	618
280.356	613
280.744	611.8
281.131	639.6
281.519	628.4
281.907	612
282.295	601.2
282.682	618.2
283.07	615.8
283.458	627.8
283.846	628.8
284.235	615.6
284.623	617.4
285.011	605.8
285.399	618.2
285.788	613.8
286.176	601
286.565	625.6
286.953	614.4
287.342	606.8
287.731	606.8
288.119	609.2
288.508	613.2
288.897	625
289.286	601
289.675	614
290.064	633.2
290.453	622.2
290.821	613.2
291.21	626
291.599	610.4
291.989	618.2
292.378	620.6
292.768	632.6
293.157	626.2
293.547	624.6
293.936	615.8
294.326	613.4
294.716	620.4
295.106	610.6
295.496	625
295.886	617
296.276	622.6
296.666	607
297.056	604
297.446	612.2
297.836	633.6
298.227	626.2
298.617	623.8
299.008	625.8
299.398	612.6
299.789	610.6
300.179	614.2
300.57	635.2
300.961	617.2
301.352	618.6
301.742	623.4
302.133	616.4
302.524	626.6
302.915	619.2
303.307	612.8
303.698	627.8
304.089	621.6
304.48	605.2
304.872	622.8
305.263	612.6
305.655	611.8
306.046	621.6
306.438	623
306.829	615.2
307.221	634.2
307.613	625.4
308.005	625
308.397	631
308.789	642
309.181	639
309.573	642.2
309.965	628.2
310.357	616.4
310.749	626.2
311.142	607
311.534	610.8
311.926	628.4
312.319	622
312.711	605
313.104	631.2
313.497	617.2
313.889	655.6
314.282	629.8
314.675	640.8
315.068	620
315.461	622
315.854	653.4
316.247	626.8
316.64	624.2
317.033	616.2
317.405	624.8
317.798	619.8
318.192	628.2
318.585	608.4
318.979	623.6
319.372	618.2
319.766	610
320.16	626.4
320.553	644
320.947	640.4
321.341	619.8
321.735	612.4
322.129	607.4
322.523	656
322.917	611
323.311	627.2
323.705	616.4
324.099	613.6
324.494	643
324.888	639.4
325.282	615.8
325.677	633
326.071	622.4
326.466	630
326.861	622.2
327.255	631
327.65	628.4
328.045	635
328.44	622.8
328.835	626.2
329.23	617.2
329.625	642
330.02	608.4
330.415	639.4
330.81	623.2
331.206	625.2
331.601	619.8
331.996	628.6
332.37	635.8
332.766	602
333.161	646
333.557	613.4
333.953	620.4
334.348	990.6
334.744	619.2
335.14	612.2
335.536	619.2
335.932	630.6
336.328	617.6
336.724	633.2
337.12	621.4
337.516	633.4
337.913	620.6
338.309	635.4
338.705	617
339.102	628
339.498	622
339.895	622.8
340.291	616.4
340.688	629.8
341.085	614.6
341.481	620.2
341.878	608.2
342.275	636.2
342.672	606.2
343.069	612.4
343.466	602.6
343.842	626.2
344.239	612
344.636	620.8
345.033	607.4
345.431	611.4
345.828	612.2
346.225	612.2
346.623	648.4
347.02	615.8
347.418	626.8
347.816	628.8
348.213	602
348.611	614.2
349.009	613.8
349.407	628.4
349.805	600
350.203	601
350.601	624.8
350.999	615
351.397	674.4
351.795	623
352.193	621.6
352.57	614.6
352.969	626.8
353.367	607.8
353.766	611.4
354.164	614.4
354.563	629.2
354.961	613.6
355.36	604.8
355.759	611
356.158	600.6
356.557	604.8
356.956	605.4
357.355	607.6
357.754	610
358.153	617.2
358.552	635.6
358.951	608
359.35	633.2
359.75	598.8
360.149	606.6
360.527	602.2
360.926	610
361.326	617.6
361.726	615.4
362.125	608.4
362.525	615.6
362.925	605
363.325	616.6
363.724	613.8
364.124	612.2
364.524	604.2
364.924	611.4
365.324	622.8
365.725	590.8
366.125	620
366.525	605.8
366.904	603.4
367.304	592.6
367.705	622.2
368.105	631.8
368.506	602.6
368.906	612.2
369.307	614.4
369.708	612.4
370.108	598
370.509	619.2
370.91	606.8
371.311	609
371.712	613.6
372.113	605.8
372.514	595
372.894	606.8
373.295	611.6
373.696	625.6
374.097	617.4
374.499	638
374.9	610
375.301	604.4
375.703	615
376.105	598.6
376.506	612
376.908	620.6
377.309	607.4
377.711	604.6
378.113	603.2
378.493	611.4
378.895	604.4
379.297	619.4
379.699	594
380.102	609.6
380.504	599.6
380.906	603.2
381.308	625.6
381.71	601.8
382.113	619.4
382.515	601.2
382.918	612.8
383.299	604.8
383.701	615
384.104	610.8
384.507	588.2
384.909	599.2
385.312	596.2
385.715	594.4
386.118	604.8
386.521	597.8
386.924	624.6
387.327	607.8
387.709	594.6
388.112	597.8
388.515	612.6
388.918	607.6
389.322	614.2
389.725	613.4
390.129	635.8
390.532	618.6
390.936	606.8
391.339	607.6
391.743	611.8
392.125	603
392.529	617.4
392.933	619.6
393.337	608.2
393.74	612
394.144	614
394.548	602
394.953	610.6
395.357	624.2
395.761	610.4
396.144	609.6
396.548	605.2
396.952	620.4
397.357	611.2
397.761	616.6
398.166	606.4
398.57	609.6
398.975	594
399.379	609.2
399.763	658.4
400.168	608
400.572	612.6
400.977	615.2
401.382	625
401.787	621.8
402.192	629.6
402.597	626.2
403.002	607.2
403.386	614.2
403.791	625.8
404.197	606.4
404.602	601.2
405.007	611.6
405.413	608
405.818	610.6
406.224	602.8
406.608	609.2
407.014	593.8
407.42	620.6
407.825	604
408.231	618.6
408.637	613.8
409.043	619.4
409.449	613.6
409.834	605.2
410.24	614.4
410.646	628.2
411.052	631.2
411.458	617.6
411.865	616.8
412.271	618
412.677	618.2
413.062	617.4
413.469	597.8
413.875	643.4
414.282	627.6
414.689	614.4
415.095	611.2
415.502	611
415.888	609.6
416.294	597.8
416.701	651.4
417.108	611.4
417.515	616.2
417.923	617.4
418.33	627.2
418.715	615.6
419.123	612.8
419.53	604.4
419.937	612
420.345	626.8
420.752	608.6
421.16	624.4
421.546	615.8
421.953	619.6
422.361	599
422.769	605.8
423.177	602.4
423.585	636.2
423.992	636.6
424.379	620
424.787	625.2
425.195	626
425.603	611
426.011	622.8
426.419	631.6
426.806	616
427.214	609
427.623	630.8
428.031	638.8
428.44	623.4
428.848	623
429.235	647
429.644	632.2
430.053	628.4
430.461	654.2
430.87	661.2
431.279	658.2
431.666	647
432.075	657.2
432.484	672.2
432.893	672
433.302	704.4
433.711	726.8
434.099	710.6
434.508	707.4
434.918	716
435.327	752.2
435.737	742.4
436.125	755.4
436.534	763.4
436.944	772.8
437.353	785
437.763	816.6
438.173	796
438.561	825
438.971	810.6
439.381	837.4
439.791	841
440.201	841.6
440.589	861
440.999	888.2
441.409	877.8
441.819	871.4
442.23	908
442.619	907
443.029	907
443.439	917.6
443.85	918.8
444.26	935.8
444.649	936.2
445.06	937.8
445.471	934.2
445.881	944.4
446.292	963.4
446.682	979.2
447.092	942.6
447.503	1015
447.914	967.8
448.325	970.8
448.715	969.6
449.126	955
449.537	965
449.948	970
450.338	972.8
450.75	971.4
451.161	982
451.572	993.2
451.984	977.8
452.374	978.4
452.786	988
453.197	989.8
453.609	1007.6
453.999	990.2
454.411	986.2
454.823	1006.8
455.235	1000.6
455.647	1003.2
456.037	992.6
456.449	999.6
456.862	992
457.274	999.6
457.665	997.2
458.077	1015.2
458.489	1040
458.902	998.2
459.293	1003.6
459.705	995.8
460.118	1004.4
460.53	1004
460.921	998.6
461.334	997.4
461.747	1012
462.16	1010.8
462.551	1016
462.964	1006.8
463.377	987.6
463.79	997.2
464.182	1013.2
464.595	994.2
465.008	1005.4
465.421	997.6
465.813	992
466.226	1010.4
466.64	1000.2
467.053	1045.6
467.445	1016
467.859	1029.6
468.272	1011.8
468.686	1021.4
469.078	1009.6
469.492	992.2
469.906	1016.6
470.298	1006.8
470.712	993.4
471.126	1042
471.54	990
471.933	992.6
472.347	994.4
472.761	997.6
473.175	996.2
473.568	996.2
473.982	969.4
474.397	989.8
474.79	990
475.204	990.2
475.619	991.4
476.033	987.8
476.426	982.8
476.841	972
477.256	993.2
477.649	953.6
478.064	963.2
478.479	961.4
478.872	965.2
479.287	941.4
479.702	964.2
480.118	963
480.511	956.6
480.927	966.4
481.342	958.2
481.736	972.6
482.151	952.4
482.566	955.4
482.96	945.8
483.376	960.6
483.792	950
484.186	959.2
484.602	946.8
485.017	947
485.412	937.4
485.827	948.4
486.243	937.8
486.638	963
487.054	954.8
487.47	942.4
487.865	921
488.281	914.6
488.697	916.8
489.092	917.6
489.508	907.6
489.925	934
490.32	910.6
490.736	914.4
491.153	914.8
491.548	919.8
491.964	921.2
492.381	889.8
492.776	908.8
493.193	898.6
493.61	898.6
494.006	896.6
494.422	888.6
494.84	885.8
495.235	895.6
495.652	880
496.069	879.2
496.465	878.6
496.883	880.2
497.3	903.6
497.696	873.4
498.113	878.2
498.509	864
498.927	859.4
499.344	860.6
499.741	852.4
500.158	865.8
500.576	862.4
500.973	857.6
501.39	849
501.787	846.2
502.205	854.6
502.623	853.8
503.02	827
503.438	834
503.856	831
504.253	834.8
504.671	845.4
505.068	839.2
505.486	836
505.905	852.8
506.302	824
506.72	833.2
507.118	809.4
507.536	828
507.955	810.2
508.352	820.6
508.771	826
509.169	824.8
509.587	793.8
510.006	803.4
510.404	785.8
510.823	797.4
511.221	800
511.64	797.2
512.038	799.6
512.457	788.4
512.877	796.6
513.275	789.2
513.694	785
514.092	786
514.512	797
514.91	792.8
515.33	787
515.749	772.2
516.148	783.2
516.568	781
516.966	769.4
517.386	767.2
517.785	772
518.205	764.6
518.603	763.4
519.024	766.6
519.444	770.6
519.843	772.8
520.263	770.8
520.662	763.8
521.082	754.2
521.481	751.6
521.902	755
522.301	757.2
522.722	745.4
523.121	749.6
523.542	743.2
523.963	742.8
524.362	747.4
524.783	745
525.183	728.6
525.604	745
526.003	727
526.425	730.6
526.824	737.4
527.246	738.6
527.646	745
528.067	727.6
528.467	730
528.888	730
529.289	721
529.71	730.8
530.11	713.8
530.532	712.6
530.932	712
531.354	708.8
531.755	750.6
532.176	721.8
532.577	708.2
532.999	721
533.4	704.8
533.822	716.4
534.223	724.8
534.645	708.4
535.046	711.4
535.468	697.2
535.869	723.6
536.292	709.4
536.693	733.6
537.115	705.6
537.516	696.4
537.939	698.6
538.34	723.8
538.742	716.6
539.165	700.2
539.566	693.8
539.989	685.6
540.391	683.2
540.814	710
541.216	696.4
541.639	693.4
542.041	695
542.464	691.6
542.866	684
543.268	677.2
543.691	689.8
544.093	695.4
544.517	698.6
544.919	679.8
545.343	697.2
545.745	671.8
546.147	683.4
546.571	669.2
546.974	664.6
547.398	672
547.8	694.2
548.224	668.4
548.627	673.4
549.03	675.8
549.454	659.4
549.857	662.6
550.281	663.6
550.684	668.4
551.087	681
551.512	666.4
551.915	670.2
552.34	663
552.743	658.4
553.146	664.8
553.571	656.6
553.975	682.8
554.399	659.4
554.803	704.4
555.207	642.6
555.632	653.6
556.036	660.4
556.461	647.8
556.865	650.4
557.268	650.2
557.694	647.8
558.098	660.6
558.502	661.4
558.927	646
559.332	651.2
559.736	638
560.162	647.6
560.566	645.6
560.992	649.2
561.396	651.8
561.801	642.4
562.227	646.8
562.631	635.2
563.036	636.4
563.462	645.4
563.867	643.2
564.272	631.8
564.698	643.2
565.103	634.8
565.508	658.8
565.935	646.2
566.34	638.2
566.745	656.4
567.172	641
567.577	659
567.982	648.6
568.409	644.2
568.815	626.6
569.22	638.6
569.626	639.8
570.053	627.8
570.459	640.4
570.865	639
571.292	650.8
571.698	632.4
572.104	621.6
572.531	630.4
572.937	634
573.343	629.4
573.75	637
574.177	624.4
574.583	632.6
574.99	624.6
575.396	628
575.824	629.6
576.231	635.4
576.637	620.6
577.065	645.8
577.472	632
577.879	625.6
578.286	632.6
578.714	622.8
579.121	618.8
579.528	623.6
579.935	634
580.364	625.8
580.771	604
581.178	619.6
581.585	625
582.014	627.8
582.421	621
582.829	624.2
583.236	630.2
583.644	617
584.073	623
584.481	629.6
584.889	620.4
585.296	628.8
585.726	622.8
586.134	612
586.542	620.2
586.95	636.8
587.358	614.4
587.787	623.4
588.196	633.6
588.604	618.2
589.012	619.6
589.421	606.6
589.851	613.8
590.259	620
590.668	615.4
591.076	654.6
591.485	610
591.894	616.4
592.324	623.6
592.733	622.2
593.142	606.6
593.551	612.6
593.96	646.8
594.369	604.6
594.8	606.6
595.209	611.2
595.618	605
596.028	611.4
596.437	594.4
596.847	615
597.256	613.2
597.687	617.4
598.097	610
598.507	603.8
598.917	615.4
599.327	616.2
599.736	608
600.146	623.2
600.556	609.8
600.988	624
601.398	609.2
601.808	618.2
602.219	604.4
602.629	607.6
603.039	609
603.45	630.8
603.86	608
604.271	622.4
604.703	610.4
605.114	605.2
605.525	609
605.935	613.2
606.346	628.6
606.757	608.4
607.168	610.8
607.579	605.4
607.99	611.4
608.402	608.8
608.813	612.6
609.224	608.2
609.636	599.2
610.047	602.8
610.48	607.2
610.892	611.8
611.303	612.8
611.715	601.4
612.127	597.2
612.539	600.4
612.95	607.6
613.362	585.6
613.774	602
614.186	600.6
614.599	609.2
615.011	611.4
615.423	606
615.835	604.8
616.248	597.6
616.66	615
617.073	591.8
617.485	606.2
617.898	612.4
618.311	604.8
618.723	602.2
619.136	629.4
619.549	616.6
619.962	624.6
620.375	603.2
620.788	601.2
621.201	601
621.614	614
622.028	601.6
622.441	609.8
622.854	619.2
623.268	591
623.681	607.2
624.095	603.6
624.509	605.8
624.922	608
625.336	593.2
625.728	606.4
626.142	615.2
626.556	621.2
626.97	611.6
627.384	590.4
627.799	605
628.213	616.4
628.627	602.4
629.041	600.6
629.456	602.2
629.87	606.2
630.285	607.8
630.699	608.2
631.093	596.6
631.507	604.2
631.922	600
632.337	617.8
632.752	596
633.167	599.8
633.582	599.6
633.997	600.6
634.412	608.6
634.806	601.6
635.221	587.4
635.637	607.8
636.052	589.6
636.468	604.2
636.883	622.6
637.299	604.6
637.715	585.2
638.109	598
638.525	591.6
638.941	617.2
639.357	606.8
639.773	606.8
640.189	596.8
640.584	607.8
641	598.8
641.416	579.2
641.832	602.2
642.249	598.2
642.665	595.4
643.06	595.2
643.477	607.6
643.894	585
644.31	606
644.727	597
645.123	589.4
645.54	587.8
645.957	595
646.374	608.8
646.77	599
647.187	628.8
647.604	594.8
648.021	577.2
648.439	591.4
648.835	601.4
649.252	590.8
649.67	600.4
650.088	595.6
650.484	600
650.902	603.2
651.32	605.2
651.738	589.4
652.134	601.6
652.552	610.6
652.971	598.2
653.389	591.2
653.786	608.2
654.204	607.6
654.622	586.4
655.019	593.6
655.438	593.2
655.857	589.2
656.275	584.8
656.673	594.6
657.091	601.2
657.51	582
657.908	600.4
658.327	606.8
658.746	582.6
659.144	590.6
659.563	608.8
659.982	601.2
660.38	583.2
660.8	603.6
661.219	603.6
661.617	597.6
662.037	597.4
662.457	604
662.855	571.8
663.275	619.6
663.695	596.4
664.094	590
664.514	599.8
664.934	579.2
665.333	594.4
665.753	584.8
666.152	587
666.572	588.2
666.993	607.2
667.392	586
667.812	595.6
668.212	584.6
668.632	594.2
669.053	590.8
669.453	593.4
669.874	586.8
670.273	587.4
670.694	580.8
671.116	593.2
671.515	597.6
671.937	587.6
672.337	584
672.758	579.2
673.158	591
673.58	573.8
673.98	586.2
674.402	608.6
674.824	591
675.224	586.4
675.646	580.2
676.047	590
676.469	592.2
676.869	593.6
677.292	589.4
677.693	582.8
678.115	587
678.516	598
678.939	593.6
679.34	583.6
679.762	602.6
680.164	597
680.586	583.4
680.988	597
681.411	613
681.812	585.2
682.236	582
682.637	587.6
683.061	588
683.462	589.2
683.864	587
684.288	600.4
684.69	587
685.114	595.6
685.516	597.8
685.94	583.8
686.342	596.6
686.766	585.2
687.168	595
687.571	602.4
687.995	591.2
688.398	580.6
688.822	595
689.225	607.4
689.628	609.8
690.052	596
690.456	595
690.88	590.6
691.284	584.6
691.687	602.8
692.112	584.2
692.515	579
692.919	586.6
693.344	589.8
693.747	594.2
694.173	585.2
694.577	603.4
694.98	597.2
695.406	581.6
695.81	593.2
696.214	593.6
696.64	594.2
697.044	588.8
697.448	596.4
697.874	590.4
698.279	589.6
698.684	580.8
699.11	585.8
699.514	581.6
699.919	591.4
700.324	583
700.75	595
701.156	593.4
701.561	598.4
701.987	591
702.393	604
702.798	599.2
703.203	593.2
703.63	588.2
704.036	583.4
704.442	588.6
704.847	594
705.274	590.4
705.68	591
706.086	599.4
706.492	578
706.92	584
707.326	594.2
707.732	591.6
708.139	580
708.545	582.4
708.973	585.4
709.38	592.4
709.786	579.4
710.193	599.8
710.6	595.4
711.028	571.4
711.435	583.8
711.842	587.2
712.249	581
712.656	587.2
713.064	595.6
713.492	579.4
713.9	586.2
714.307	589.6
714.715	588.2
715.123	595.2
715.53	590
715.938	599.6
716.367	586.4
716.775	592.8
717.184	580.2
717.592	595.6
718	605.8
718.408	618.8
718.816	631.4
719.225	596.8
719.633	589
720.042	579.6
720.472	585.6
720.881	611.8
721.29	588.8
721.699	574
722.108	590.8
722.517	596.6
722.926	586
723.335	596.2
723.744	587
724.154	594.6
724.563	587.2
724.973	586.8
725.382	587.6
725.792	585.4
726.202	585
726.612	610.2
727.022	588.4
727.432	588.8
779.813	588.2
780.223	630.2
780.634	589.6
781.044	584.8
781.454	587
781.865	603
782.276	579.4
782.686	598.8
783.097	583.6
783.508	585.8
783.919	590.6
784.33	594.6
784.741	596.8
785.152	579.4
785.563	580
785.974	579.6
786.386	606.2
786.776	581.8
787.188	587
787.599	579
788.011	594
788.423	588.8
788.835	577
789.247	581.4
789.659	579.6
790.071	579.8
790.483	624.4
790.874	582.6
791.286	591.6
791.699	580.2
792.111	582
792.524	589
792.937	580
793.349	578.4
793.741	585.4
794.154	582.2
794.567	606.6
794.98	586.4
795.393	578.6
795.785	595.6
796.198	585.4
796.612	590
797.026	577.4
797.439	571.2
797.831	581.6
798.245	570.2
798.659	581.2
799.073	578.2
799.487	579.2
799.88	582
800.294	577
800.708	590.4
801.123	594.2
801.516	598.2
801.93	578.6
802.345	568.8
802.76	569
803.153	599.4
803.568	598
803.983	585.4
804.377	586.6
804.792	566.6
805.207	569.6
805.601	592
806.016	627.6
806.432	580.8
806.826	611.8
807.242	599.4
807.658	589.8
808.052	584.8
808.468	579.8
808.884	573.2
809.279	588.2
809.695	594.6
810.111	600.8
810.506	595
810.922	609.2
811.339	581.4
811.734	595.8
812.151	576.8
812.546	575
812.963	574.2
813.38	586
813.776	583
814.193	598.4
814.589	585.4
815.006	581.4
815.402	577
815.82	576.2
816.237	577.4
816.633	583.4
817.051	574.6
817.448	580.2
817.866	577.4
818.262	594
818.68	572.6
819.077	578.4
819.495	579.4
819.892	616.8
820.311	570.6
820.708	576.4
821.127	576.4
821.524	592.8
821.943	584.2
822.34	593.6
822.759	582
823.157	580.4
823.576	593.2
823.974	593.4
824.393	603.8
824.791	576.8
825.189	570.8
825.609	581
826.007	582.4
826.427	569.6
826.826	576.4
827.246	585.6
827.644	572
828.043	593
828.463	576.2
828.862	588.8
829.261	593.4
829.682	574.2
830.081	588.8
830.502	584.6
830.901	592
831.301	596.6
831.722	573.6
832.121	583.6
832.521	572.2
832.943	588.6
833.342	584
833.742	575.2
834.164	586
834.564	576.2
834.965	587.4
835.386	579.4
835.787	580.6
836.188	577.8
836.588	582.8
837.01	578.4
837.411	579
837.812	595.2
838.213	586.8
838.636	582.4
839.037	646.6
839.438	583.6
839.84	587.6
840.263	591.8
840.664	587.4
841.066	580.4
841.468	584.8
841.891	579.2
842.293	593.6
842.695	583.2
843.098	590.6
843.5	564.2
843.902	583.8
844.326	583.8
844.729	581.6
845.131	600
845.534	579.8
845.937	597.8
846.34	600.2
846.764	571.8
847.167	586.6
847.571	578.8
847.974	583
848.377	584.4
848.781	621.2
849.184	589.6
849.588	580.8
849.992	585.4
850.396	577.6
850.821	594.8
851.225	592.6
851.63	578.6
852.034	604.8
852.438	581
852.843	608.6
853.247	580
853.652	577.2
854.057	591.2
854.462	591.6
854.867	580.2
855.272	608
855.677	595.2
856.082	576.2
856.487	574.2
856.893	592.2
857.298	574.6
857.704	589.2
858.11	583.6
858.516	594.2
858.922	583
859.328	595
859.734	594.8
860.14	587.4
860.525	587.8
860.931	578
861.338	583.8
861.745	585.4
862.151	593
862.558	579.2
862.965	579.4
863.372	571
863.779	574.6
864.186	594.4
864.572	586.4
864.98	601.8
865.387	612.2
865.795	572.2
866.203	589.8
866.61	571.2
867.018	596.2
867.405	593.4
867.813	575.6
868.221	587.8
868.63	578.2
869.038	586.2
869.425	616.4
869.834	576.6
870.243	575
870.652	572.2
871.039	572.6
871.448	583.8
871.857	586.4
872.266	591.2
872.654	588.4
873.064	576
873.473	590.2
873.883	578
874.271	575.4
874.681	586.8
875.091	576.2
875.48	588.8
875.89	594.4
876.3	582.4
876.689	565.8
877.1	577.2
877.51	585.4
877.9	611
878.31	581.4
878.721	618.2
879.111	592.4
879.522	571.6
879.933	574
880.323	572
880.734	578.6
881.125	587.2
881.536	583
881.948	578.4
882.338	583.8
882.75	588.6
883.141	582
883.553	587.4
883.944	607.4
884.356	591.4
884.769	574
885.16	576.6
885.573	588.6
885.964	573.2
886.377	579.2
886.768	569.8
887.181	577.4
887.573	576.2
887.987	586.4
888.378	593.6
888.792	589.2
889.184	627
889.598	576.6
889.99	580.6
890.383	579.6
890.797	566
891.19	582.6
891.604	581.6
891.997	576.6
892.411	573
892.805	567.8
893.198	567.4
893.613	571
894.006	581.6
894.421	573.6
894.815	578.8
895.209	581
895.624	611.6
896.018	599.6
896.412	564.2
896.828	568
897.222	580.8
897.617	571.2
898.033	602.6
898.427	589
898.822	584.4
899.239	580
899.634	571
900.029	596
900.424	575
900.841	570.2
901.236	591.8
901.632	580.2
902.027	633.2
902.445	595.4
902.841	583.6
903.237	579.6
903.633	595.8
904.05	589.8
904.447	583.2
904.843	584.8
905.24	592
905.636	574.8
906.033	573.6
906.451	586.6
906.848	569.2
907.246	575.4
907.643	578.6
908.04	588.8
908.438	595.8
908.835	576
909.254	578.6
909.652	580.8
910.05	572.4
910.448	573.6
910.846	573
911.244	569.8
911.643	579.4
912.041	578.4
912.44	596.6
912.839	574
913.237	579.2
913.636	572.8
914.035	580.6
914.434	572.4
914.834	591.4
915.233	584
915.633	575.6
916.032	568
916.432	568.2
916.832	592
917.232	570.8
917.632	572
918.032	582.2
918.432	576.6
918.833	581.6
919.233	577.8
919.634	569.6
920.035	579
920.436	575.8
920.837	587.8
921.238	568.6
921.639	575.6
922.019	581
922.42	576.2
922.822	592.4
923.224	582.4
923.625	578.6
924.027	581.4
924.429	590.4
924.81	583.8
925.212	590.8
925.615	574.2
926.017	579.4
926.42	592
926.801	578.8
927.204	584.6
927.607	591.2
928.01	593.6
928.413	582
928.795	576.6
929.199	577.8
929.602	582.2
930.006	567
930.388	572.6
930.792	586.4
931.196	575.8
931.579	620.8
931.983	573.2
932.388	618.6
932.771	571.4
933.176	565.6
933.58	578.8
933.964	587.4
934.369	575.2
934.774	586
935.158	573.6
935.563	585.2
935.947	587
936.353	581
936.759	582
937.143	580.8
937.549	579.2
937.934	600.2
938.34	593.6
938.746	578
939.131	579
939.538	577.2
939.923	586
940.33	576.6
940.716	581.6
941.123	572.8
941.508	588
941.916	598.8
942.302	596.4
942.709	578.2
943.096	573
943.503	581.8
943.89	578.4
944.298	581.2
944.685	601.4
945.072	580.6
945.48	589.4
945.867	577.8
946.276	569.6
946.663	598.6
947.051	595.8
947.46	581.8
947.848	584.6
948.257	576.4
948.645	593.2
949.033	581
949.443	572.4
949.831	609.6
950.22	568.4
950.63	580.6
951.018	596.2
951.407	579.6
951.796	572.4
952.207	584.4
952.596	590.6
952.985	569.6
953.375	621.4
953.786	573.6
954.176	568.2
954.566	582
954.956	570.6
955.367	577
955.758	601
956.148	563.6
956.539	585.4
956.929	564.4
957.341	575.6
957.732	567.6
958.123	595.2
958.515	568
958.906	591
959.297	575
959.689	578.4
960.102	565.4
960.494	576.6
960.886	572.4
961.278	565.4
961.67	601.4
962.062	614.6
962.455	577
962.847	567.4
963.24	575.8
963.633	572.2
964.026	571
964.419	585.2
964.812	588.8
965.206	572.8
965.599	583
965.993	579.6
966.386	579.6
966.78	591.6
967.174	591
967.569	570.8
967.963	577.4
968.357	572
968.752	569.2
969.146	571.4
969.541	572.6
969.936	574.2
970.331	586.6
970.705	575
971.1	579
971.496	590.6
971.892	561.2
972.287	580.2
972.683	574.2
973.079	573.2
973.454	590.4
973.85	585.2
974.247	591
974.643	606.2
975.04	583
975.415	581
975.812	573.6
976.209	578.4
976.607	569.2
976.982	583
977.38	595.6
977.778	576.6
978.175	575.2
978.552	577.8
978.95	579.2
979.348	575
979.725	613.8
980.123	578.4
980.522	579.8
980.899	570
981.298	567
981.697	576.8
982.075	570.2
982.474	571.4
982.852	582.6
983.251	583.6
983.651	574
984.029	593
984.429	578.8
984.808	568.2
985.208	574
985.609	565
985.987	566.2
986.388	564.4
986.768	574.8
987.168	575.4
987.548	583.2
987.949	585.2
988.329	579.4
988.731	559.8
989.111	568.6
989.491	568.8
989.893	562
990.273	578.8
990.676	570.8
991.057	563
991.459	574.8
991.84	569.8
992.221	563
992.624	591.8
993.006	580
993.388	571.4
993.791	580.2
994.173	589.6
994.576	611.6
994.959	570.4
995.341	573.8
995.724	584.2
996.128	573
996.511	575.8
996.894	575.8
997.298	577.2
997.681	583.2
998.065	570.6
998.448	574
998.854	580.6
999.237	564.2
999.621	584.8
1000.01	584.6
1000.39	571.4
1000.8	570.6
1001.18	578.4
1001.56	582.6
1001.95	579.4
1002.33	579.6
1002.72	580.6
1003.13	582.2
1003.51	568.4
1003.9	568
1004.28	593.4
1004.67	566
1005.06	572
1005.44	607.2
1005.83	560
1006.21	582.2
1006.6	567.2
1006.99	585.8
1007.37	577.2
1007.76	573
1060.12	567.8
1060.51	564
1060.89	579.8
1061.28	584.8
1061.67	573.2
1062.06	576.4
1062.45	573
1062.83	568.6
1063.22	589
1063.61	609.8
1064	583.6
1064.39	581
1064.78	566.8
1065.14	577.8
1065.53	574.2
1065.92	576.4
1066.31	567.6
1066.7	579.4
1067.09	587.2
1067.46	582.4
1067.85	573.2
1068.24	572.4
1068.63	572
1069.02	574.4
1069.39	583.2
1069.78	570.8
1070.17	572.8
1070.57	563.6
1070.93	583.2
1071.33	568
1071.72	577.8
1072.11	570.4
1072.48	572.8
1072.87	579.2
1073.26	571.6
1073.64	576.4
1074.03	570
1074.4	570
1074.79	577.4
1075.19	575.8
1075.56	575
1075.95	576.4
1076.34	572
1076.72	569.4
1077.11	581.6
1077.48	587.6
1077.88	583.2
1078.25	575.2
1078.64	585.8
1079.02	576
1079.41	582.6
1079.78	571.2
1080.18	570.2
1080.55	634.8
1080.95	563.8
1081.32	573
1081.72	579.8
1082.09	572.6
1082.49	575
1082.86	568.8
1083.24	572.2
1083.63	570.8
1084.01	575.4
1084.38	593.4
1084.78	574.4
1085.16	586.8
1085.55	589.8
1085.93	594.2
1086.31	564
1086.7	598.4
1087.08	577.2
1087.46	574.8
1087.83	563.6
1088.23	579.2
1088.61	575.6
1088.99	577.6
1089.36	575.4
1089.76	578.6
1090.14	572.6
1090.52	569
1090.9	574.8
1091.27	591.2
1091.67	600.2
1092.05	579.8
1092.43	577.2
1092.81	585
1093.19	583.8
1093.57	573.6
1093.95	573
1094.35	587
1094.73	581
1095.11	569.6
1095.49	568
1095.87	588.2
1096.25	589
1096.63	577.8
1097.01	574
1097.39	578.6
1097.77	576.8
1098.15	570.2
1098.53	575.2
1098.91	571.6
1099.29	565.6
1099.68	585.2
1100.06	584.6
1100.44	575.2
1100.82	581
1101.18	586
1101.56	581.6
1101.95	564.8
1102.33	571
1102.71	571.8
1103.1	568.6
1103.48	562.2
1103.86	567.4
1104.22	580.2
1104.61	571
1104.99	567.2
1105.38	561.2
1105.76	579.4
1106.12	573.8
1106.51	618.8
1106.89	588.8
1107.26	579.8
1107.64	584.4
1108.03	567.6
1108.41	575.8
1108.78	576.4
1109.16	578
1109.55	575.6
1109.91	568.2
1110.3	557.8
1110.69	589.8
1111.05	570.8
1111.44	572
1111.8	571.4
1112.19	577.4
1112.58	584.2
1112.94	571.6
1113.33	573.2
1113.7	560
1114.09	573.6
1114.45	565
1114.84	573.6
1115.21	580.8
1115.6	574
1115.96	581.8
1116.35	577.2
1116.72	564.8
1117.11	575.6
1117.48	572.6
1117.85	579.4
1118.24	594.8
1118.6	579.2
1118.99	563.4
1119.36	572.2
1119.73	568.8
1120.12	574.4
1120.49	562.8
1120.86	579
1121.25	570.2
1121.62	570.2
1121.99	567
1122.38	585.4
1122.76	575.4
1123.13	568.4
1123.5	583.6
1123.89	573.8
1124.26	568.8
1124.63	573.6
1125	573.4
1125.4	572
1125.77	569.6
1126.14	563.2
1126.51	567
1126.88	576.4
1127.26	572.4
1127.63	564.2
1128.02	560.6
1128.4	565.2
1128.77	557.8
1129.14	571.6
1129.52	574.2
1129.89	579.4
1130.26	565.4
1130.64	556.6
1131.01	573.6
