#lambda/nm	C1
208.295	513.6
208.67	463
209.045	431.2
209.419	432.6
209.794	613.6
210.169	595.2
210.544	723.8
210.919	623
211.295	611.4
211.67	622.6
212.045	612.2
212.421	612.6
212.796	640.6
213.172	609
213.547	611.8
213.923	613.4
214.299	616.8
214.675	627
215.051	615.6
215.427	623
215.803	630
216.179	620.4
216.555	612.6
216.932	622.8
217.308	614.8
217.684	609.2
218.061	613.8
218.438	620.4
218.814	614.6
219.191	630.6
219.568	602.4
219.945	610.4
220.322	624.4
220.699	615.8
221.076	617.2
221.453	612.6
221.83	605.4
222.208	607
222.585	613
222.962	618.4
223.34	618.2
223.717	621
224.095	608.2
224.473	621
224.851	611.8
225.229	609.8
225.607	633.8
225.985	608.6
226.363	612.4
226.741	616.2
227.119	612.6
227.497	626.4
227.876	611.4
228.254	628.4
228.633	620
229.011	607.4
229.39	622.8
229.769	610
230.148	624.8
230.527	639.6
230.905	617.6
231.284	619.8
231.664	605
232.043	629.8
232.422	626.8
232.801	611.8
233.181	624
233.56	611.8
233.94	624.6
234.319	605.2
234.699	609.2
235.079	650
235.458	652.6
235.838	634.6
236.218	611.6
236.598	608.4
236.978	614.6
237.358	613.6
237.738	611.6
238.119	623
238.499	610.6
238.88	615.6
239.26	636.4
239.641	603.4
240.021	610.4
240.402	609.2
240.783	616.2
241.163	604.4
241.544	616.4
241.925	621.4
242.306	627.6
242.687	615
243.069	612
243.45	632.2
243.831	607.4
244.212	608.2
244.594	647.2
244.975	621.8
245.357	619.2
245.739	612.6
246.12	617.8
246.502	634.4
246.884	610
247.266	609.2
247.648	626.4
248.03	639.4
248.412	618.6
248.794	620.8
249.176	606.8
249.559	629
249.941	604.8
250.323	609.8
250.706	612.4
251.089	617.4
251.471	620.2
251.854	611.2
252.237	618.6
252.62	621.4
253.002	617.8
253.385	617
253.769	624.2
254.152	616.6
254.535	624
254.918	609.6
255.301	615
255.685	616.6
256.068	611.4
256.452	634
256.835	621.4
257.219	618.2
257.603	621.6
257.986	602
258.37	626
258.754	610
259.138	621.6
259.522	624
259.906	608
260.29	622.4
260.675	622.8
261.059	623.2
261.443	602.2
261.828	619.4
262.212	621.8
262.597	600.4
262.981	611.2
263.366	615.2
263.751	617
264.136	617.2
264.521	614.4
264.906	607.4
265.291	624.2
265.676	611.2
266.061	623.8
266.446	638
266.831	616
267.217	634.8
267.602	620
267.987	616.6
268.373	615.8
268.759	621.8
269.144	620.8
269.53	618.4
269.916	619
270.302	607
270.688	618.4
271.074	613.4
271.46	631.4
271.846	648.6
272.232	615.4
272.618	613
273.004	613.2
273.391	623.6
273.777	624.4
274.164	618.2
274.55	625.4
274.937	622.4
275.324	611.6
275.71	621
276.097	623.2
276.484	610.4
276.871	621.4
277.258	617.2
277.645	605.8
278.032	608.6
278.419	608.4
278.807	629
279.194	604.2
279.581	612.2
279.969	622.6
280.356	614.4
280.744	616.8
281.131	643.2
281.519	633
281.907	619.6
282.295	614.2
282.682	638.2
283.07	616.8
283.458	634
283.846	624
284.235	627.6
284.623	628.6
285.011	609
285.399	623
285.788	613.4
286.176	611.2
286.565	632.6
286.953	620.6
287.342	611
287.731	608.4
288.119	620
288.508	614.8
288.897	612.6
289.286	610.6
289.675	616.4
290.064	625.2
290.453	615
290.821	618
291.21	632.8
291.599	609.6
291.989	616.4
292.378	622.8
292.768	629.2
293.157	621.2
293.547	625.6
293.936	619.4
294.326	612.4
294.716	626
295.106	615.2
295.496	623.4
295.886	619
296.276	625.2
296.666	605
297.056	611.4
297.446	600.8
297.836	635
298.227	613.4
298.617	610.4
299.008	630.6
299.398	616.4
299.789	613.8
300.179	620
300.57	626
300.961	615
301.352	610.4
301.742	622.4
302.133	610.8
302.524	619.2
302.915	612.6
303.307	603.4
303.698	631.8
304.089	622.4
304.48	620.2
304.872	629.4
305.263	617.8
305.655	612.4
306.046	638.8
306.438	621.6
306.829	619.6
307.221	640.2
307.613	622
308.005	634.8
308.397	631.8
308.789	632.2
309.181	647.2
309.573	634.8
309.965	620.4
310.357	614.8
310.749	624
311.142	605.6
311.534	612.6
311.926	627.8
312.319	611.6
312.711	603.6
313.104	622.6
313.497	605
313.889	648.6
314.282	635
314.675	638.6
315.068	611.4
315.461	621
315.854	655.6
316.247	614
316.64	618.8
317.033	615
317.405	623.8
317.798	614.4
318.192	616.6
318.585	609.8
318.979	621
319.372	610
319.766	619.8
320.16	633
320.553	628
320.947	633.6
321.341	609.8
321.735	613
322.129	598
322.523	642.6
322.917	616.8
323.311	630.2
323.705	621.4
324.099	623.8
324.494	625.2
324.888	627.8
325.282	622
325.677	623.6
326.071	627.8
326.466	630.2
326.861	621.8
327.255	639.6
327.65	635
328.045	634.4
328.44	627.8
328.835	618.2
329.23	615.8
329.625	649.2
330.02	614
330.415	643
330.81	627
331.206	622.2
331.601	613.4
331.996	626.8
332.37	642.6
332.766	606.8
333.161	641.2
333.557	612.2
333.953	612.4
334.348	928.4
334.744	615.2
335.14	614.8
335.536	616
335.932	633.4
336.328	612.4
336.724	628.2
337.12	620.2
337.516	613.2
337.913	614.8
338.309	629.2
338.705	619.8
339.102	626
339.498	612.4
339.895	631
340.291	610.8
340.688	629.2
341.085	606.2
341.481	609.8
341.878	615.6
342.275	632.2
342.672	604.6
343.069	606.4
343.466	601.2
343.842	622.8
344.239	610
344.636	615.2
345.033	606
345.431	603.4
345.828	615
346.225	613.2
346.623	654.8
347.02	619.4
347.418	626.4
347.816	632.2
348.213	609.8
348.611	621.6
349.009	606.4
349.407	633.6
349.805	603.2
350.203	607.6
350.601	618
350.999	611.8
351.397	677.2
351.795	616.8
352.193	626.6
352.57	622.2
352.969	624.8
353.367	601.2
353.766	607.8
354.164	617.2
354.563	619
354.961	611
355.36	615.2
355.759	606.8
356.158	607.6
356.557	606.6
356.956	601.6
357.355	601.2
357.754	613.6
358.153	612.6
358.552	639.2
358.951	604.6
359.35	627
359.75	612.6
360.149	606.4
360.527	596.6
360.926	610.2
361.326	618.4
361.726	611.8
362.125	601.2
362.525	625.6
362.925	612.2
363.325	609.8
363.724	616
364.124	613.2
364.524	599.4
364.924	605.8
365.324	620.6
365.725	600.2
366.125	612.2
366.525	613.2
366.904	610.2
367.304	601.2
367.705	632.2
368.105	628.2
368.506	611
368.906	609.2
369.307	614.8
369.708	620.2
370.108	604.4
370.509	619
370.91	614.8
371.311	621.2
371.712	614.8
372.113	610
372.514	596
372.894	607.8
373.295	607.2
373.696	618.2
374.097	616.8
374.499	635.8
374.9	616
375.301	598.6
375.703	612.6
376.105	609
376.506	614.2
376.908	617
377.309	609.8
377.711	610.6
378.113	613.6
378.493	605.6
378.895	606.8
379.297	618.4
379.699	593.6
380.102	610.6
380.504	611
380.906	611.6
381.308	635
381.71	607
382.113	616.8
382.515	611.2
382.918	612.6
383.299	603.6
383.701	624.6
384.104	617
384.507	598.6
384.909	601.4
385.312	593.4
385.715	597
386.118	603.2
386.521	603.8
386.924	616.6
387.327	613.2
387.709	599.2
388.112	593.4
388.515	607.4
388.918	608
389.322	608.2
389.725	603.8
390.129	641.4
390.532	608.2
390.936	609.6
391.339	603.8
391.743	607.2
392.125	603.4
392.529	616.2
392.933	627.4
393.337	597
393.74	601.2
394.144	609.2
394.548	603
394.953	606
395.357	609.6
395.761	614.8
396.144	615.2
396.548	608
396.952	609.6
397.357	616.6
397.761	609.6
398.166	606.4
398.57	602.4
398.975	598
399.379	605.4
399.763	657.2
400.168	614.8
400.572	603.8
400.977	612
401.382	622.6
401.787	611.8
402.192	627
402.597	624.2
403.002	598.6
403.386	629
403.791	629.4
404.197	610
404.602	620.2
405.007	605.2
405.413	600
405.818	617
406.224	600
406.608	605
407.014	602
407.42	627.8
407.825	607.6
408.231	610.6
408.637	612.2
409.043	619
409.449	598.4
409.834	592.8
410.24	604.4
410.646	611
411.052	617.6
411.458	608.4
411.865	616.2
412.271	619.8
412.677	612.4
413.062	612.6
413.469	603.8
413.875	637
414.282	621.8
414.689	617.4
415.095	619.4
415.502	602.8
415.888	614.2
416.294	602
416.701	648
417.108	610.4
417.515	621.6
417.923	608.8
418.33	627.2
418.715	625.4
419.123	602.6
419.53	602.8
419.937	608.2
420.345	627.4
420.752	614.8
421.16	630.8
421.546	609.2
421.953	622.8
422.361	603.2
422.769	612.6
423.177	606.4
423.585	632.4
423.992	633.8
424.379	626.2
424.787	621.4
425.195	630
425.603	613.2
426.011	629.6
426.419	621.2
426.806	610.8
427.214	614
427.623	619.2
428.031	627.4
428.44	623.6
428.848	623.6
429.235	625
429.644	619.8
430.053	612
430.461	634.2
430.87	636.8
431.279	632.2
431.666	608.6
432.075	613
432.484	627.6
432.893	603.2
433.302	626.4
433.711	654.2
434.099	612.8
434.508	613.2
434.918	607
435.327	622
435.737	620.4
436.125	621.8
436.534	629.8
436.944	626.2
437.353	643
437.763	653.4
438.173	621
438.561	646.8
438.971	626.2
439.381	640
439.791	647.2
440.201	633.4
440.589	655.6
440.999	660
441.409	652.2
441.819	646.8
442.23	669.2
442.619	673.4
443.029	670.8
443.439	682.2
443.85	690.6
444.26	694.6
444.649	691.4
445.06	692
445.471	689.2
445.881	693.2
446.292	714.4
446.682	725
447.092	692.2
447.503	753.6
447.914	710.4
448.325	712.4
448.715	710.4
449.126	693.2
449.537	716.2
449.948	714.8
450.338	720.8
450.75	732.4
451.161	729.2
451.572	741.4
451.984	722.6
452.374	712.4
452.786	730.4
453.197	736.4
453.609	753.2
453.999	719.2
454.411	722.8
454.823	738
455.235	740
455.647	744.6
456.037	744.4
456.449	721.6
456.862	745.6
457.274	747.6
457.665	741
458.077	753.4
458.489	775
458.902	741
459.293	757.8
459.705	750.6
460.118	748
460.53	761.6
460.921	759.2
461.334	755.6
461.747	751.6
462.16	772.4
462.551	776.4
462.964	765
463.377	751.4
463.79	759.8
464.182	782.2
464.595	756.8
465.008	782.6
465.421	777.6
465.813	773.4
466.226	778.8
466.64	774.8
467.053	816.2
467.445	779.8
467.859	791.2
468.272	784.8
468.686	791.4
469.078	769.8
469.492	768
469.906	787
470.298	784
470.712	777
471.126	834.6
471.54	771.2
471.933	774.2
472.347	778.2
472.761	771.2
473.175	776.6
473.568	784.8
473.982	779.4
474.397	780
474.79	777.8
475.204	791.6
475.619	781.8
476.033	781
476.426	787
476.841	777.8
477.256	810
477.649	775
478.064	768.8
478.479	772.2
478.872	779.4
479.287	764.4
479.702	769.2
480.118	778.6
480.511	770.8
480.927	772.8
481.342	782.8
481.736	777.2
482.151	772
482.566	782
482.96	772
483.376	790.2
483.792	779
484.186	781.4
484.602	777.4
485.017	784.4
485.412	775.4
485.827	777.4
486.243	763.6
486.638	796.6
487.054	796
487.47	794.6
487.865	769.2
488.281	768.4
488.697	760.8
489.092	778.6
489.508	762.4
489.925	767.4
490.32	752.6
490.736	771.2
491.153	766.6
491.548	763
491.964	767.6
492.381	745.4
492.776	766.6
493.193	759.8
493.61	780.2
494.006	761.6
494.422	759.2
494.84	751.8
495.235	758
495.652	750.2
496.069	759.4
496.465	741
496.883	758.6
497.3	773.8
497.696	749.4
498.113	755.8
498.509	732.4
498.927	736.8
499.344	734
499.741	735.2
500.158	753.4
500.576	752.2
500.973	740.2
501.39	737
501.787	719
502.205	740.8
502.623	734.6
503.02	724.6
503.438	736.4
503.856	734.2
504.253	735.8
504.671	738.8
505.068	719.2
505.486	736.4
505.905	740.8
506.302	720.4
506.72	730.8
507.118	709.2
507.536	715.8
507.955	716.6
508.352	720.6
508.771	724.8
509.169	722
509.587	714.4
510.006	710
510.404	713.2
510.823	715.4
511.221	711.8
511.64	707.6
512.038	726.8
512.457	708.4
512.877	724.4
513.275	709.4
513.694	709.4
514.092	702.2
514.512	705.8
514.91	710.8
515.33	700.2
515.749	707.8
516.148	707
516.568	703.8
516.966	687.4
517.386	692.8
517.785	689.6
518.205	692.4
518.603	693.8
519.024	675.2
519.444	696.4
519.843	695
520.263	697.4
520.662	691
521.082	694.6
521.481	684.2
521.902	689.4
522.301	691
522.722	684.8
523.121	685.6
523.542	687.2
523.963	685.8
524.362	687
524.783	685
525.183	678.2
525.604	682.8
526.003	675.2
526.425	677.2
526.824	681.4
527.246	685
527.646	683.6
528.067	677.6
528.467	671.8
528.888	679
529.289	656.2
529.71	674.2
530.11	667
530.532	678.8
530.932	655.4
531.354	653.2
531.755	691.4
532.176	675.6
532.577	665.6
532.999	667.6
533.4	668.2
533.822	671.4
534.223	674.6
534.645	650.6
535.046	646
535.468	660.6
535.869	674.2
536.292	650.4
536.693	686.2
537.115	660.8
537.516	655.6
537.939	650.6
538.34	673.2
538.742	666.8
539.165	661.6
539.566	668.6
539.989	640.2
540.391	660.6
540.814	653.4
541.216	648.2
541.639	654
542.041	659.6
542.464	654.2
542.866	643.2
543.268	648.8
543.691	647.8
544.093	662.2
544.517	674.2
544.919	640.2
545.343	671.6
545.745	625.6
546.147	650.2
546.571	651.6
546.974	642.6
547.398	643.8
547.8	662
548.224	645.4
548.627	643.6
549.03	648.4
549.454	642.8
549.857	626.6
550.281	646.8
550.684	641.6
551.087	649.8
551.512	654
551.915	653.4
552.34	642.6
552.743	642.2
553.146	640.6
553.571	638.4
553.975	657
554.399	627.8
554.803	685.2
555.207	631.6
555.632	635.8
556.036	645.2
556.461	627.4
556.865	636
557.268	632
557.694	629.6
558.098	645
558.502	637.8
558.927	633.4
559.332	640.6
559.736	618.8
560.162	639
560.566	631.2
560.992	630.8
561.396	627.8
561.801	624
562.227	628.2
562.631	628.4
563.036	639.2
563.462	636.6
563.867	641.8
564.272	620.6
564.698	625
565.103	616.6
565.508	646.4
565.935	630.2
566.34	631.4
566.745	646.8
567.172	627.4
567.577	642
567.982	631
568.409	622.4
568.815	621.8
569.22	624.2
569.626	634.4
570.053	617.2
570.459	628.6
570.865	625.4
571.292	630.4
571.698	615.6
572.104	613.6
572.531	607.4
572.937	631.8
573.343	618
573.75	619.2
574.177	629.8
574.583	624.4
574.99	612.8
575.396	622.6
575.824	622.2
576.231	625.2
576.637	615
577.065	643.6
577.472	617.2
577.879	617.4
578.286	624.4
578.714	613.6
579.121	616.4
579.528	622.2
579.935	621.2
580.364	613.6
580.771	603.4
581.178	607.4
581.585	625.2
582.014	617.8
582.421	610
582.829	606.4
583.236	620.6
583.644	605.2
584.073	607
584.481	619.6
584.889	612.2
585.296	617.4
585.726	612.4
586.134	602.6
586.542	606.6
586.95	626.8
587.358	603.4
587.787	612.6
588.196	609.8
588.604	612
589.012	606.8
589.421	598.8
589.851	606.8
590.259	606.2
590.668	607.4
591.076	645.2
591.485	596
591.894	610.4
592.324	627.4
592.733	619
593.142	589.4
593.551	603.4
593.96	638
594.369	600
594.8	592.4
595.209	601.6
595.618	590.6
596.028	597
596.437	607.8
596.847	603.6
597.256	609.8
597.687	598.2
598.097	608
598.507	599.6
598.917	605.2
599.327	615.6
599.736	603.2
600.146	615.6
600.556	596.4
600.988	624.8
601.398	594.4
601.808	612
602.219	585.2
602.629	601
603.039	597.6
603.45	622.6
603.86	596.8
604.271	614.4
604.703	592
605.114	588.6
605.525	600.4
605.935	606.4
606.346	622.8
606.757	607.2
607.168	600.4
607.579	589.8
607.99	613
608.402	604.8
608.813	596.4
609.224	597.8
609.636	581.8
610.047	602.6
610.48	604.6
610.892	604.2
611.303	612.6
611.715	607.2
612.127	596.4
612.539	605.6
612.95	604.2
613.362	598
613.774	590.2
614.186	601.2
614.599	595.8
615.011	608.6
615.423	601.2
615.835	600.4
616.248	587.2
616.66	603.2
617.073	596.8
617.485	600.2
617.898	606.6
618.311	609.4
618.723	596.2
619.136	627.2
619.549	613.4
619.962	620.6
620.375	597.6
620.788	604.6
621.201	595.6
621.614	595.2
622.028	595
622.441	604.4
622.854	610.6
623.268	595.4
623.681	606.4
624.095	604.4
624.509	601
624.922	599.8
625.336	594
625.728	601
626.142	605.2
626.556	616.6
626.97	603.2
627.384	599
627.799	600.4
628.213	598.2
628.627	601.4
629.041	595.6
629.456	595
629.87	592.6
630.285	599.4
630.699	606.4
631.093	598.2
631.507	608
631.922	605
632.337	602.6
632.752	584.6
633.167	587.4
633.582	591.6
633.997	593.6
634.412	588.8
634.806	591.4
635.221	576
635.637	604.6
636.052	586
636.468	598.2
636.883	612.6
637.299	597
637.715	580.2
638.109	599.6
638.525	583.4
638.941	605.2
639.357	604.8
639.773	604
640.189	589.4
640.584	588.4
641	591.4
641.416	582.6
641.832	596.2
642.249	585.6
642.665	590.2
643.06	602
643.477	598.8
643.894	578.2
644.31	588.8
644.727	592.6
645.123	586.6
645.54	588.2
645.957	589
646.374	608
646.77	595
647.187	624.2
647.604	598.8
648.021	578.2
648.439	579.8
648.835	596.8
649.252	591
649.67	603.8
650.088	593.2
650.484	596
650.902	601.8
651.32	607.8
651.738	587.6
652.134	593.4
652.552	620.8
652.971	597.8
653.389	597.2
653.786	599.8
654.204	613.8
654.622	594
655.019	595.8
655.438	597.8
655.857	604.4
656.275	596.2
656.673	590.4
657.091	607.2
657.51	589.6
657.908	597.6
658.327	613.8
658.746	577.8
659.144	595
659.563	613.4
659.982	590.4
660.38	583
660.8	591.2
661.219	606.6
661.617	600
662.037	596.6
662.457	606
662.855	580
663.275	617.6
663.695	596.2
664.094	595.4
664.514	598
664.934	586.2
665.333	605.8
665.753	597.6
666.152	582
666.572	589.6
666.993	606.6
667.392	592.2
667.812	593.2
668.212	590.2
668.632	607.6
669.053	594.6
669.453	605.4
669.874	593.6
670.273	592.2
670.694	578.2
671.116	603.2
671.515	600.4
671.937	587.4
672.337	588.4
672.758	591.2
673.158	604.4
673.58	576
673.98	595.6
674.402	605.2
674.824	591
675.224	586.8
675.646	586.6
676.047	591.4
676.469	590
676.869	594
677.292	590.2
677.693	584.6
678.115	586.4
678.516	592.6
678.939	599.4
679.34	583.4
679.762	605.8
680.164	594
680.586	583.6
680.988	588.6
681.411	612.6
681.812	591.2
682.236	585
682.637	580.6
683.061	575.2
683.462	595.6
683.864	585.2
684.288	594.2
684.69	583.2
685.114	595.8
685.516	595.8
685.94	585
686.342	588.8
686.766	585
687.168	585.6
687.571	612.6
687.995	591.2
688.398	581.4
688.822	585
689.225	606.2
689.628	607.4
690.052	587.8
690.456	586.8
690.88	587.8
691.284	583.6
691.687	596.4
692.112	584.2
692.515	589
692.919	594
693.344	588.6
693.747	588
694.173	580
694.577	595
694.98	590.4
695.406	585
695.81	594.4
696.214	593.8
696.64	588.4
697.044	592
697.448	597.6
697.874	590
698.279	583.6
698.684	575.2
699.11	583.8
699.514	591.8
699.919	585.6
700.324	579.4
700.75	595
701.156	586.6
701.561	597
701.987	592
702.393	596.8
702.798	589.8
703.203	589.2
703.63	584.4
704.036	583.8
704.442	588.4
704.847	584.6
705.274	586.8
705.68	589
706.086	598.8
706.492	574.2
706.92	595.8
707.326	604.4
707.732	575
708.139	586.2
708.545	578.6
708.973	584
709.38	592
709.786	576.8
710.193	598.2
710.6	593.6
711.028	577.6
711.435	591.6
711.842	584.6
712.249	590.6
712.656	578
713.064	597.8
713.492	586.4
713.9	589.4
714.307	582.8
714.715	578.2
715.123	584.2
715.53	588
715.938	589.6
716.367	592.6
716.775	595.6
717.184	583
717.592	583.2
718	603
718.408	622.6
718.816	629.4
719.225	596.4
719.633	588.4
720.042	578.6
720.472	588.4
720.881	614.4
721.29	599.8
721.699	577.2
722.108	590.2
722.517	586
722.926	579
723.335	591.8
723.744	587.4
724.154	583.8
724.563	584.4
724.973	586.2
725.382	591.2
725.792	585
726.202	579.4
726.612	594
727.022	591.8
727.432	577.6
779.813	587.2
780.223	627.8
780.634	580.2
781.044	576.4
781.454	584.8
781.865	593
782.276	580.8
782.686	596.2
783.097	585.2
783.508	580.8
783.919	583.6
784.33	599.6
784.741	599.4
785.152	568.6
785.563	574.8
785.974	580.2
786.386	599.4
786.776	587.8
787.188	585
787.599	574
788.011	592.4
788.423	590.2
788.835	581.2
789.247	586
789.659	575.6
790.071	581.4
790.483	626
790.874	577.8
791.286	596.2
791.699	578.2
792.111	592.4
792.524	580.8
792.937	588.4
793.349	580.2
793.741	576.2
794.154	584
794.567	613.2
794.98	584
795.393	582.8
795.785	593.6
796.198	583.4
796.612	591.4
797.026	585.2
797.439	572.4
797.831	587.4
798.245	581.4
798.659	581.6
799.073	581
799.487	582.6
799.88	584.6
800.294	590
800.708	583.6
801.123	592.6
801.516	604.6
801.93	580.4
802.345	572.6
802.76	584.4
803.153	597
803.568	604
803.983	598
804.377	588
804.792	577.4
805.207	572
805.601	587.4
806.016	623.8
806.432	581.8
806.826	616.2
807.242	597.6
807.658	591.6
808.052	587.4
808.468	582.6
808.884	580.2
809.279	582
809.695	602.8
810.111	604.6
810.506	585.4
810.922	601
811.339	578
811.734	597.2
812.151	582.2
812.546	583.8
812.963	587.2
813.38	592.8
813.776	584.2
814.193	616.8
814.589	585.2
815.006	572.8
815.402	580.4
815.82	580.4
816.237	588.2
816.633	592.4
817.051	575.8
817.448	584.2
817.866	581.2
818.262	600.2
818.68	584.8
819.077	583.6
819.495	584.2
819.892	623.4
820.311	578.4
820.708	584.8
821.127	580.2
821.524	593.2
821.943	591.4
822.34	604.8
822.759	582.8
823.157	589.8
823.576	596.6
823.974	587
824.393	632.8
824.791	582.6
825.189	568.4
825.609	580.6
826.007	589.2
826.427	571.6
826.826	583.8
827.246	586.4
827.644	566.2
828.043	600.2
828.463	588.6
828.862	589.4
829.261	586.4
829.682	578
830.081	595
830.502	576
830.901	584.6
831.301	593
831.722	572.4
832.121	582.8
832.521	577
832.943	580.8
833.342	576.8
833.742	577.4
834.164	585.8
834.564	571.8
834.965	584.6
835.386	575.8
835.787	581.6
836.188	582
836.588	582.8
837.01	581.4
837.411	578
837.812	587.8
838.213	586
838.636	585.2
839.037	649.2
839.438	591
839.84	586.6
840.263	579.2
840.664	587.8
841.066	589
841.468	589
841.891	580
842.293	591.2
842.695	585.8
843.098	589.6
843.5	584
843.902	585.8
844.326	585.4
844.729	582.8
845.131	594.6
845.534	577.8
845.937	593
846.34	592.6
846.764	572.8
847.167	580
847.571	568.8
847.974	576.2
848.377	576.8
848.781	624.6
849.184	605.6
849.588	578.4
849.992	582.8
850.396	579.8
850.821	607.2
851.225	582
851.63	572.6
852.034	597.6
852.438	579.4
852.843	666
853.247	574.8
853.652	572.8
854.057	600.6
854.462	589.8
854.867	592.2
855.272	611.2
855.677	595
856.082	586.8
856.487	565.6
856.893	581.4
857.298	586
857.704	577
858.11	587.4
858.516	593.8
858.922	586.8
859.328	593
859.734	584.8
860.14	581.6
860.525	581.6
860.931	581.6
861.338	584.2
861.745	587.4
862.151	594.6
862.558	585.4
862.965	579.8
863.372	577.4
863.779	573.4
864.186	601.8
864.572	582.2
864.98	605
865.387	614.8
865.795	578.8
866.203	581.8
866.61	572.8
867.018	592.4
867.405	597.8
867.813	582.2
868.221	579
868.63	583.6
869.038	590.8
869.425	619.4
869.834	583
870.243	581.6
870.652	571.2
871.039	574.4
871.448	590.8
871.857	586.4
872.266	581
872.654	581.4
873.064	580.6
873.473	588.6
873.883	578.2
874.271	580.2
874.681	596.8
875.091	571.6
875.48	591
875.89	601.8
876.3	573.8
876.689	567.8
877.1	584.2
877.51	594.4
877.9	605.2
878.31	578
878.721	613.4
879.111	588.2
879.522	577.8
879.933	570.6
880.323	569
880.734	571.6
881.125	583.4
881.536	581.6
881.948	572.8
882.338	580.8
882.75	581.8
883.141	581.6
883.553	587.6
883.944	600
884.356	588.8
884.769	574.2
885.16	583.8
885.573	586.4
885.964	575.8
886.377	583.8
886.768	572.2
887.181	572.2
887.573	578.2
887.987	592.2
888.378	593.6
888.792	581.8
889.184	626.8
889.598	565.8
889.99	579.2
890.383	574
890.797	577.4
891.19	586.4
891.604	578.8
891.997	575.2
892.411	567.4
892.805	575
893.198	578
893.613	568.2
894.006	570.4
894.421	568.4
894.815	588
895.209	578.6
895.624	633.4
896.018	595.4
896.412	584.2
896.828	578
897.222	590
897.617	581
898.033	600.4
898.427	575.8
898.822	582.8
899.239	574.2
899.634	572.2
900.029	596.8
900.424	573.4
900.841	569
901.236	588.4
901.632	587.4
902.027	649.6
902.445	581.4
902.841	585.6
903.237	589
903.633	594.2
904.05	583.2
904.447	586
904.843	581
905.24	577.2
905.636	572.2
906.033	576.2
906.451	585.8
906.848	574
907.246	582.2
907.643	582.2
908.04	591.2
908.438	598.6
908.835	584.2
909.254	582.6
909.652	587.2
910.05	584.2
910.448	573.6
910.846	585.6
911.244	572
911.643	576
912.041	581.8
912.44	599.2
912.839	575.4
913.237	572.2
913.636	587.2
914.035	588.4
914.434	582
914.834	588.8
915.233	590.2
915.633	572
916.032	577.8
916.432	578.2
916.832	585.8
917.232	580
917.632	572.6
918.032	592
918.432	579.4
918.833	574.4
919.233	579.2
919.634	573.4
920.035	576.2
920.436	573.6
920.837	588.8
921.238	577.8
921.639	577.6
922.019	589.8
922.42	580.6
922.822	581.8
923.224	576.8
923.625	580.4
924.027	581
924.429	592.8
924.81	582.4
925.212	575.4
925.615	584
926.017	581.6
926.42	590
926.801	583.4
927.204	575.6
927.607	584.8
928.01	594.8
928.413	583
928.795	567.6
929.199	581.4
929.602	580.6
930.006	568
930.388	567.2
930.792	580.4
931.196	574.2
931.579	611.2
931.983	575.6
932.388	621.4
932.771	580.8
933.176	579.8
933.58	583.6
933.964	593.4
934.369	568.8
934.774	580.6
935.158	580.2
935.563	578.8
935.947	586.8
936.353	588.2
936.759	569.8
937.143	591
937.549	577.4
937.934	594.4
938.34	593.6
938.746	577.2
939.131	572.8
939.538	565.2
939.923	585.4
940.33	571.8
940.716	581.2
941.123	572.2
941.508	587.4
941.916	592.8
942.302	579.8
942.709	573.6
943.096	575.4
943.503	583.4
943.89	581.2
944.298	575.4
944.685	606.2
945.072	572.6
945.48	589.8
945.867	582
946.276	575.6
946.663	604.6
947.051	592.6
947.46	587.4
947.848	581.8
948.257	576.4
948.645	575.6
949.033	581
949.443	572.8
949.831	621
950.22	570.8
950.63	586.6
951.018	606.4
951.407	577
951.796	573.2
952.207	583.6
952.596	581.4
952.985	570.6
953.375	630.6
953.786	574
954.176	576
954.566	590.4
954.956	575.6
955.367	577.4
955.758	602.2
956.148	562.8
956.539	591.2
956.929	573
957.341	568
957.732	576.6
958.123	590
958.515	564.6
958.906	586.6
959.297	570.8
959.689	581.2
960.102	579.8
960.494	585
960.886	580.2
961.278	585
961.67	598.8
962.062	609.4
962.455	578.2
962.847	578.8
963.24	574.8
963.633	579.4
964.026	568.4
964.419	579.8
964.812	584.6
965.206	575
965.599	577.2
965.993	577.6
966.386	575.2
966.78	586.4
967.174	583.2
967.569	567.6
967.963	564.4
968.357	569
968.752	567.6
969.146	570.2
969.541	567.8
969.936	577.8
970.331	573.4
970.705	574
971.1	571.4
971.496	583.2
971.892	566.4
972.287	577.4
972.683	579.8
973.079	572
973.454	598.2
973.85	579
974.247	587.6
974.643	595.8
975.04	572.4
975.415	582.8
975.812	574.4
976.209	580
976.607	566
976.982	588
977.38	590.8
977.778	579.6
978.175	568.4
978.552	582
978.95	581.2
979.348	583.4
979.725	617.6
980.123	576.6
980.522	573.6
980.899	570.4
981.298	574.2
981.697	580
982.075	581.8
982.474	571.4
982.852	579
983.251	586.4
983.651	566.4
984.029	590.4
984.429	576
984.808	565.4
985.208	579.8
985.609	568.8
985.987	556.2
986.388	578.2
986.768	581.6
987.168	570.2
987.548	585.4
987.949	587.6
988.329	584.2
988.731	569.6
989.111	574.6
989.491	574.8
989.893	573.6
990.273	582.4
990.676	568.2
991.057	567.2
991.459	578.4
991.84	579
992.221	571.8
992.624	589.8
993.006	584.6
993.388	581.2
993.791	580
994.173	585.8
994.576	607.2
994.959	575.4
995.341	573.6
995.724	583.2
996.128	577.6
996.511	577.8
996.894	575
997.298	571.6
997.681	585.6
998.065	579.4
998.448	574.4
998.854	587
999.237	565.8
999.621	582
1000.01	591.8
1000.39	574.8
1000.8	574
1001.18	586.2
1001.56	593.6
1001.95	583.4
1002.33	590.4
1002.72	578.2
1003.13	577.4
1003.51	581.8
1003.9	575
1004.28	591.8
1004.67	566.2
1005.06	577
1005.44	605.4
1005.83	566.6
1006.21	574.4
1006.6	568.8
1006.99	584.8
1007.37	596.2
1007.76	581.2
1060.12	566.6
1060.51	561.8
1060.89	583.2
1061.28	583.4
1061.67	589.8
1062.06	585.8
1062.45	583.2
1062.83	578.6
1063.22	583.2
1063.61	608
1064	586.8
1064.39	581.8
1064.78	572.8
1065.14	583.4
1065.53	586.2
1065.92	580.8
1066.31	576.6
1066.7	584.6
1067.09	589.8
1067.46	575
1067.85	569.2
1068.24	576.4
1068.63	582.6
1069.02	568.8
1069.39	579.8
1069.78	576.2
1070.17	574.2
1070.57	561
1070.93	570.6
1071.33	566.8
1071.72	569.8
1072.11	568
1072.48	574.8
1072.87	573.8
1073.26	574
1073.64	576.2
1074.03	568.2
1074.4	565.8
1074.79	569
1075.19	572.2
1075.56	576.4
1075.95	575.4
1076.34	573.8
1076.72	571
1077.11	585
1077.48	596.2
1077.88	581
1078.25	580.6
1078.64	577.4
1079.02	575.8
1079.41	588.8
1079.78	571.8
1080.18	568.2
1080.55	636
1080.95	569.2
1081.32	571
1081.72	581.8
1082.09	572.6
1082.49	565.4
1082.86	571.2
1083.24	559.6
1083.63	570.6
1084.01	570.4
1084.38	578.2
1084.78	571.8
1085.16	579.8
1085.55	581.8
1085.93	594.2
1086.31	567.2
1086.7	601.2
1087.08	576.6
1087.46	572.2
1087.83	566
1088.23	591.8
1088.61	567.8
1088.99	580.2
1089.36	572
1089.76	571.4
1090.14	573.2
1090.52	579.4
1090.9	573.8
1091.27	593
1091.67	599.6
1092.05	576
1092.43	567.6
1092.81	587.4
1093.19	577.4
1093.57	570.2
1093.95	581
1094.35	576.6
1094.73	591
1095.11	565.2
1095.49	576
1095.87	576.4
1096.25	596
1096.63	581.2
1097.01	576.8
1097.39	583.6
1097.77	568
1098.15	577.2
1098.53	569.2
1098.91	573.8
1099.29	576.8
1099.68	588.6
1100.06	588
1100.44	576.6
1100.82	580
1101.18	581.4
1101.56	578.2
1101.95	568.8
1102.33	587.2
1102.71	574.8
1103.1	561.2
1103.48	564.6
1103.86	562.4
1104.22	579.4
1104.61	576
1104.99	566.4
1105.38	564.2
1105.76	574
1106.12	575.6
1106.51	611.8
1106.89	584.6
1107.26	567
1107.64	576.4
1108.03	580.8
1108.41	583.6
1108.78	585.6
1109.16	572.4
1109.55	585.2
1109.91	558
1110.3	558.2
1110.69	583.8
1111.05	572.8
1111.44	571.6
1111.8	578.8
1112.19	585.4
1112.58	576
1112.94	570
1113.33	571.4
1113.7	568
1114.09	575
1114.45	559.2
1114.84	576.4
1115.21	583
1115.6	566.8
1115.96	577.4
1116.35	585.2
1116.72	565.8
1117.11	585.6
1117.48	573.2
1117.85	574.2
1118.24	588.8
1118.6	575.6
1118.99	575.6
1119.36	581.4
1119.73	576.6
1120.12	574.8
1120.49	563.4
1120.86	585.2
1121.25	570.6
1121.62	562.4
1121.99	567.6
1122.38	585.8
1122.76	569.6
1123.13	569.2
1123.5	578.2
1123.89	585.4
1124.26	553.8
1124.63	575.2
1125	572.8
1125.4	563.8
1125.77	566.4
1126.14	555.6
1126.51	568.6
1126.88	572.8
1127.26	571.8
1127.63	559.6
1128.02	574.2
1128.4	553.4
1128.77	569.8
1129.14	577.2
1129.52	574.8
1129.89	580.4
1130.26	562.6
1130.64	561.4
1131.01	574.4
