#lambda/nm	C1
208.295	508.4
208.67	472.2
209.045	428.8
209.419	432.8
209.794	613.2
210.169	600
210.544	718.8
210.919	618.4
211.295	612.6
211.67	610.8
212.045	612.2
212.421	610.2
212.796	647.6
213.172	609.8
213.547	607
213.923	620
214.299	609
214.675	628.6
215.051	623
215.427	621.4
215.803	635.8
216.179	620.8
216.555	609.6
216.932	631.4
217.308	622
217.684	620.4
218.061	622.8
218.438	617
218.814	611.2
219.191	619.4
219.568	607.2
219.945	614.4
220.322	620
220.699	624.2
221.076	620
221.453	622.8
221.83	616.6
222.208	614
222.585	612.4
222.962	618.8
223.34	621.8
223.717	616.2
224.095	616.6
224.473	607.4
224.851	609.4
225.229	604.6
225.607	632.8
225.985	604
226.363	607.4
226.741	610.8
227.119	618.4
227.497	630.8
227.876	598.8
228.254	626.6
228.633	626.4
229.011	620.6
229.39	617.6
229.769	613.8
230.148	621
230.527	637.2
230.905	627.8
231.284	622.8
231.664	609.8
232.043	633.8
232.422	624.8
232.801	611
233.181	623.4
233.56	620
233.94	613.4
234.319	602
234.699	617
235.079	661.6
235.458	651.2
235.838	635
236.218	603.4
236.598	603.8
236.978	605.6
237.358	615
237.738	607.6
238.119	620.2
238.499	597
238.88	620.2
239.26	639.6
239.641	604.8
240.021	610.6
240.402	617
240.783	620
241.163	611.6
241.544	619
241.925	621.4
242.306	631.8
242.687	614
243.069	619
243.45	628.2
243.831	617.6
244.212	612
244.594	653.2
244.975	632
245.357	625.2
245.739	610.4
246.12	616.6
246.502	634.6
246.884	612.2
247.266	613.2
247.648	624.6
248.03	641.6
248.412	621.8
248.794	619.8
249.176	614
249.559	626.6
249.941	606.4
250.323	608.8
250.706	606
251.089	618.8
251.471	618.2
251.854	621.4
252.237	614.6
252.62	629.2
253.002	620.8
253.385	608.6
253.769	635.2
254.152	611.2
254.535	617.8
254.918	605.8
255.301	612
255.685	614
256.068	607.4
256.452	639.6
256.835	622.6
257.219	622.6
257.603	628.2
257.986	606.2
258.37	621.6
258.754	605
259.138	615.8
259.522	622.6
259.906	614.8
260.29	622.2
260.675	619.4
261.059	619.6
261.443	602.2
261.828	623
262.212	622.8
262.597	603.4
262.981	613.2
263.366	628.8
263.751	625.6
264.136	608.8
264.521	617.8
264.906	614.2
265.291	626.2
265.676	610.6
266.061	619.8
266.446	637.4
266.831	616
267.217	639.6
267.602	621.2
267.987	627.4
268.373	615.4
268.759	623.6
269.144	617.2
269.53	617
269.916	615.8
270.302	618.2
270.688	622.4
271.074	618
271.46	623.6
271.846	657.4
272.232	618
272.618	606.8
273.004	615.6
273.391	627.8
273.777	627
274.164	623.6
274.55	625
274.937	613.6
275.324	613.4
275.71	620.8
276.097	622
276.484	616
276.871	622.4
277.258	620.8
277.645	606.2
278.032	616.8
278.419	610.4
278.807	611.2
279.194	605.2
279.581	607.2
279.969	614.8
280.356	613.8
280.744	614.6
281.131	645.4
281.519	623.2
281.907	601
282.295	614
282.682	628
283.07	609.6
283.458	617.4
283.846	619.6
284.235	631.2
284.623	616.4
285.011	605
285.399	614.2
285.788	611.2
286.176	600.6
286.565	617.2
286.953	607.8
287.342	614.8
287.731	607.2
288.119	603.4
288.508	612.2
288.897	613
289.286	601.4
289.675	609.8
290.064	624.2
290.453	610.6
290.821	620.4
291.21	631.8
291.599	607.8
291.989	621.4
292.378	628.8
292.768	633
293.157	625.4
293.547	623.2
293.936	619.4
294.326	618.8
294.716	613.4
295.106	614.2
295.496	613.4
295.886	632.4
296.276	614.6
296.666	613.6
297.056	608.6
297.446	603.6
297.836	628.4
298.227	613.4
298.617	619
299.008	625.4
299.398	614.4
299.789	616.4
300.179	621.4
300.57	630.6
300.961	607.2
301.352	612.8
301.742	628.8
302.133	615
302.524	618
302.915	613.2
303.307	607.2
303.698	627.2
304.089	619.2
304.48	620.4
304.872	618.8
305.263	621.2
305.655	611.2
306.046	627
306.438	619.6
306.829	616
307.221	623.4
307.613	622.2
308.005	625.2
308.397	628.4
308.789	638.2
309.181	640.8
309.573	641.8
309.965	629.2
310.357	624.2
310.749	637.8
311.142	610.8
311.534	618
311.926	617.4
312.319	617.2
312.711	607.4
313.104	634.2
313.497	618.4
313.889	660.8
314.282	641.8
314.675	637.6
315.068	617.4
315.461	628.8
315.854	645.4
316.247	619.2
316.64	622
317.033	614.8
317.405	627.4
317.798	620.6
318.192	620.8
318.585	616.4
318.979	633.2
319.372	611.6
319.766	617.2
320.16	626.4
320.553	634
320.947	637.4
321.341	607.4
321.735	616.6
322.129	610
322.523	637.4
322.917	600.4
323.311	628.6
323.705	614.4
324.099	620.4
324.494	622.2
324.888	626.8
325.282	617.4
325.677	627.2
326.071	622.2
326.466	627.6
326.861	614.8
327.255	632
327.65	632.8
328.045	628.8
328.44	627.2
328.835	619.4
329.23	613.6
329.625	641.6
330.02	616.4
330.415	638.4
330.81	620.2
331.206	623
331.601	618.2
331.996	627
332.37	640
332.766	602.4
333.161	643.4
333.557	602.2
333.953	620.4
334.348	973
334.744	617.2
335.14	613.8
335.536	615.6
335.932	634.4
336.328	621
336.724	632
337.12	612.4
337.516	627.2
337.913	621.2
338.309	628.8
338.705	622.2
339.102	625.6
339.498	619
339.895	628.2
340.291	614.2
340.688	617
341.085	614
341.481	616.8
341.878	612.6
342.275	640.2
342.672	610.8
343.069	612.2
343.466	609.2
343.842	627.2
344.239	610
344.636	621.2
345.033	616
345.431	609
345.828	618.8
346.225	608.4
346.623	653.8
347.02	616
347.418	624.2
347.816	619.6
348.213	609.2
348.611	625
349.009	610.2
349.407	633
349.805	603.4
350.203	607
350.601	629.2
350.999	612.2
351.397	664.8
351.795	618.8
352.193	620
352.57	625.6
352.969	626.4
353.367	608.8
353.766	602.2
354.164	621.4
354.563	630.2
354.961	615.8
355.36	608.8
355.759	610.8
356.158	598.6
356.557	607
356.956	607.6
357.355	602.4
357.754	615.6
358.153	611.6
358.552	635.8
358.951	612.8
359.35	628
359.75	604
360.149	610.4
360.527	597.4
360.926	607
361.326	627
361.726	615
362.125	610.8
362.525	624.6
362.925	613
363.325	621
363.724	620.4
364.124	618.2
364.524	615
364.924	612.4
365.324	626
365.725	601.4
366.125	616
366.525	616.4
366.904	601.8
367.304	591.8
367.705	633
368.105	620
368.506	600.4
368.906	609.6
369.307	601.8
369.708	622.8
370.108	593.4
370.509	619.8
370.91	602.6
371.311	611
371.712	621.2
372.113	606.8
372.514	597.8
372.894	608.2
373.295	600.4
373.696	621
374.097	610.2
374.499	636.4
374.9	611.6
375.301	602
375.703	612
376.105	607.8
376.506	610.2
376.908	611.4
377.309	603
377.711	609
378.113	600.8
378.493	600.2
378.895	596.4
379.297	612.6
379.699	595.4
380.102	608.4
380.504	608.6
380.906	599.6
381.308	632.6
381.71	602.6
382.113	612.6
382.515	610.6
382.918	614.2
383.299	598
383.701	620.2
384.104	604.6
384.507	593
384.909	600.4
385.312	601.4
385.715	600.8
386.118	610
386.521	589.6
386.924	613.4
387.327	599.6
387.709	595.6
388.112	592.4
388.515	606.8
388.918	600.4
389.322	609.6
389.725	609.8
390.129	632.4
390.532	613.2
390.936	607.2
391.339	604.4
391.743	612.8
392.125	606.8
392.529	618.8
392.933	615.2
393.337	600.6
393.74	608.6
394.144	605.8
394.548	600
394.953	601.6
395.357	621.8
395.761	605.6
396.144	612.8
396.548	609.6
396.952	609.4
397.357	609.4
397.761	601.6
398.166	611.2
398.57	605
398.975	597.2
399.379	606.8
399.763	652.4
400.168	608.8
400.572	609
400.977	611.4
401.382	628.8
401.787	628
402.192	624.2
402.597	623.2
403.002	593.8
403.386	624.4
403.791	625.6
404.197	597.4
404.602	606.4
405.007	614.4
405.413	602.4
405.818	608.2
406.224	599.4
406.608	606.8
407.014	607
407.42	625.6
407.825	605
408.231	625.2
408.637	613
409.043	619.8
409.449	605.8
409.834	602.4
410.24	606
410.646	621.8
411.052	619.4
411.458	616
411.865	618.8
412.271	612.6
412.677	605.4
413.062	607.6
413.469	599.8
413.875	639.2
414.282	615.6
414.689	609.8
415.095	619
415.502	601.4
415.888	610.6
416.294	594.4
416.701	658.2
417.108	605.8
417.515	622.8
417.923	603.4
418.33	619.8
418.715	618
419.123	612.6
419.53	601.4
419.937	608.6
420.345	611
420.752	600.4
421.16	625.2
421.546	606.6
421.953	619.6
422.361	609
422.769	607.6
423.177	604.6
423.585	632.2
423.992	633
424.379	622
424.787	617
425.195	632.2
425.603	614.8
426.011	619.8
426.419	624
426.806	617.6
427.214	609.6
427.623	625.6
428.031	634.8
428.44	620
428.848	621.4
429.235	625.2
429.644	623.2
430.053	611.4
430.461	631.2
430.87	639.8
431.279	622.8
431.666	615
432.075	619.2
432.484	623.2
432.893	608.4
433.302	639.2
433.711	655.6
434.099	615.6
434.508	612
434.918	611.2
435.327	633.4
435.737	629
436.125	630.2
436.534	628.6
436.944	633.8
437.353	633
437.763	658.6
438.173	629.8
438.561	657.4
438.971	627.2
439.381	655
439.791	649.8
440.201	635.2
440.589	655.4
440.999	660.2
441.409	666.4
441.819	663.8
442.23	669.2
442.619	680.8
443.029	669.6
443.439	683.8
443.85	691.8
444.26	701.6
444.649	692.4
445.06	700.2
445.471	689.4
445.881	710
446.292	724.2
446.682	729.6
447.092	705
447.503	763.6
447.914	711.8
448.325	715
448.715	720
449.126	713.2
449.537	727.4
449.948	727
450.338	727.2
450.75	730.8
451.161	734.8
451.572	734.8
451.984	735.8
452.374	709.8
452.786	735.8
453.197	742.8
453.609	733.4
453.999	728.2
454.411	732.8
454.823	745.8
455.235	741.6
455.647	739
456.037	747.2
456.449	737
456.862	750.6
457.274	741.2
457.665	739.8
458.077	755.8
458.489	775.2
458.902	752.8
459.293	754
459.705	751.4
460.118	745.2
460.53	754.2
460.921	752.2
461.334	767.2
461.747	767.8
462.16	773.6
462.551	784.2
462.964	765.4
463.377	751.4
463.79	765
464.182	777.6
464.595	769.4
465.008	764
465.421	768.6
465.813	765.6
466.226	771.4
466.64	770
467.053	823.4
467.445	788.2
467.859	796.2
468.272	787.4
468.686	797
469.078	780
469.492	768.6
469.906	786.8
470.298	786.2
470.712	773.8
471.126	833.8
471.54	770.2
471.933	773.4
472.347	785
472.761	775.8
473.175	772.4
473.568	779.4
473.982	770
474.397	772.6
474.79	794.4
475.204	791.2
475.619	779.6
476.033	779
476.426	782
476.841	775.6
477.256	795.4
477.649	771.2
478.064	770.4
478.479	776.2
478.872	767.6
479.287	762.6
479.702	773
480.118	777.8
480.511	773.8
480.927	773
481.342	774.6
481.736	777.8
482.151	769.4
482.566	776
482.96	779.4
483.376	783.2
483.792	767.4
484.186	774.4
484.602	775.2
485.017	776.4
485.412	772.2
485.827	774.2
486.243	768.6
486.638	800.2
487.054	774.4
487.47	785
487.865	769.4
488.281	769
488.697	764.6
489.092	772.6
489.508	754
489.925	775.8
490.32	761.2
490.736	778.2
491.153	773.8
491.548	768
491.964	778.6
492.381	752.2
492.776	756.8
493.193	768.8
493.61	767
494.006	765.6
494.422	769.2
494.84	750
495.235	758.8
495.652	748.8
496.069	755.8
496.465	749
496.883	749
497.3	777.4
497.696	751.6
498.113	763.2
498.509	737
498.927	737
499.344	740
499.741	742
500.158	745.8
500.576	755.8
500.973	744.6
501.39	735.6
501.787	743.6
502.205	736.8
502.623	740.4
503.02	723
503.438	726.8
503.856	737.8
504.253	743
504.671	734.6
505.068	721
505.486	729.4
505.905	751.8
506.302	728.2
506.72	732.8
507.118	717.6
507.536	723.6
507.955	725.8
508.352	721.6
508.771	724.6
509.169	725.2
509.587	709.4
510.006	716.2
510.404	699.4
510.823	712
511.221	712
511.64	713.6
512.038	724.4
512.457	701.2
512.877	708.2
513.275	711.4
513.694	699
514.092	702.4
514.512	709.6
514.91	702.8
515.33	704.8
515.749	705.2
516.148	706.8
516.568	697.4
516.966	698.2
517.386	697.8
517.785	692
518.205	693.8
518.603	691
519.024	696.2
519.444	697.4
519.843	700.2
520.263	703
520.662	702
521.082	682.2
521.481	687.6
521.902	694.4
522.301	703
522.722	690.6
523.121	677.4
523.542	682.6
523.963	680.2
524.362	686.6
524.783	682.2
525.183	682.6
525.604	678.6
526.003	669.8
526.425	669.2
526.824	685
527.246	684.2
527.646	682.4
528.067	681.2
528.467	676
528.888	682
529.289	665.8
529.71	667.6
530.11	666.4
530.532	676
530.932	658.6
531.354	659.8
531.755	705.2
532.176	683.2
532.577	667
532.999	669.6
533.4	659.8
533.822	661.2
534.223	671
534.645	665
535.046	658
535.468	660.8
535.869	679
536.292	659
536.693	702.4
537.115	668.8
537.516	663.8
537.939	661.4
538.34	676.6
538.742	670.2
539.165	660.2
539.566	665.8
539.989	655.2
540.391	649.8
540.814	653.6
541.216	660.8
541.639	656.4
542.041	664.2
542.464	648.4
542.866	652.8
543.268	647.8
543.691	653.8
544.093	649.2
544.517	674.2
544.919	640
545.343	674
545.745	642.2
546.147	653.8
546.571	648.4
546.974	636.4
547.398	647.2
547.8	661.2
548.224	652.8
548.627	632
549.03	644.6
549.454	638
549.857	638.8
550.281	639.8
550.684	648.2
551.087	658.8
551.512	637.8
551.915	645.8
552.34	642.6
552.743	642.6
553.146	637.8
553.571	638.6
553.975	663
554.399	630.4
554.803	679.4
555.207	634.2
555.632	624.2
556.036	636.8
556.461	630.6
556.865	637.4
557.268	640.4
557.694	630.6
558.098	638.8
558.502	637
558.927	630
559.332	629.4
559.736	635.6
560.162	633.2
560.566	635.6
560.992	646.4
561.396	634.2
561.801	626.8
562.227	634.8
562.631	629.8
563.036	627.6
563.462	638.4
563.867	627.2
564.272	619.2
564.698	636.4
565.103	620.2
565.508	638.2
565.935	629.6
566.34	628.2
566.745	643.4
567.172	631.8
567.577	653.8
567.982	633
568.409	632.2
568.815	616.8
569.22	617.8
569.626	625.8
570.053	619
570.459	616.2
570.865	622
571.292	623.8
571.698	619.4
572.104	604.4
572.531	609.2
572.937	625.8
573.343	614.6
573.75	611.6
574.177	614.6
574.583	620.6
574.99	611.6
575.396	619.4
575.824	610.4
576.231	615.8
576.637	610.4
577.065	635.8
577.472	609.4
577.879	615.2
578.286	629.2
578.714	611.2
579.121	616
579.528	614
579.935	616.4
580.364	616.6
580.771	596.4
581.178	611
581.585	610.4
582.014	621.6
582.421	601.8
582.829	607.2
583.236	627.6
583.644	612
584.073	615.6
584.481	613.8
584.889	605
585.296	621.8
585.726	618.6
586.134	609.2
586.542	606.8
586.95	633.4
587.358	605.6
587.787	610.4
588.196	630.6
588.604	612.8
589.012	612
589.421	605.4
589.851	605
590.259	610.6
590.668	609
591.076	651.2
591.485	604.6
591.894	605
592.324	626
592.733	620.8
593.142	591.2
593.551	602.2
593.96	607
594.369	594.4
594.8	594.2
595.209	604.6
595.618	596.8
596.028	603
596.437	594.2
596.847	601.6
597.256	615.2
597.687	607.6
598.097	603.2
598.507	591.2
598.917	603
599.327	617.8
599.736	600.6
600.146	614.6
600.556	609.4
600.988	618.8
601.398	600
601.808	612.2
602.219	589.6
602.629	599
603.039	605.4
603.45	619.4
603.86	599.4
604.271	617.6
604.703	598.4
605.114	597.6
605.525	599.6
605.935	609.8
606.346	627
606.757	600
607.168	606
607.579	603.2
607.99	607.2
608.402	596
608.813	598.6
609.224	595.2
609.636	591.8
610.047	593.2
610.48	600.6
610.892	602.2
611.303	609.4
611.715	593.4
612.127	585.6
612.539	593.4
612.95	600.8
613.362	585
613.774	585.6
614.186	596.2
614.599	589.4
615.011	606.4
615.423	601.8
615.835	597.4
616.248	590.6
616.66	600.6
617.073	593.8
617.485	599.2
617.898	603.6
618.311	599.8
618.723	601.8
619.136	631.4
619.549	617.6
619.962	616.4
620.375	595.6
620.788	601.4
621.201	603.6
621.614	613.2
622.028	605.4
622.441	601.6
622.854	613.6
623.268	589.4
623.681	609.6
624.095	603
624.509	612.4
624.922	604.8
625.336	603.4
625.728	600.4
626.142	611.4
626.556	613.2
626.97	605.8
627.384	597
627.799	601.4
628.213	610.6
628.627	589.8
629.041	587.8
629.456	597.6
629.87	595.4
630.285	609.4
630.699	607.6
631.093	601.6
631.507	603.2
631.922	600
632.337	610.2
632.752	589.2
633.167	606
633.582	605.2
633.997	591.6
634.412	594.6
634.806	601.4
635.221	591.2
635.637	604.8
636.052	589.6
636.468	606.4
636.883	616
637.299	589
637.715	587
638.109	607.4
638.525	587.4
638.941	613
639.357	596.2
639.773	603.6
640.189	595.8
640.584	596.8
641	605.6
641.416	589.4
641.832	602
642.249	589
642.665	602.8
643.06	598.2
643.477	604.6
643.894	584.6
644.31	591.4
644.727	595.4
645.123	593.6
645.54	586.6
645.957	595.2
646.374	599.4
646.77	601
647.187	623.2
647.604	593.8
648.021	591
648.439	590.4
648.835	597.8
649.252	595.2
649.67	588.2
650.088	594.6
650.484	601.6
650.902	591
651.32	600.2
651.738	587.2
652.134	593
652.552	620.2
652.971	592
653.389	599.4
653.786	616.8
654.204	605.6
654.622	587.6
655.019	593.2
655.438	593
655.857	594
656.275	593.8
656.673	587.8
657.091	606
657.51	591.2
657.908	597.8
658.327	607.2
658.746	579.2
659.144	595.4
659.563	598.8
659.982	588.4
660.38	595
660.8	592.8
661.219	609
661.617	599
662.037	594.8
662.457	603.4
662.855	580
663.275	616
663.695	590.4
664.094	595
664.514	597.2
664.934	586.8
665.333	594.6
665.753	587.8
666.152	584.4
666.572	583
666.993	598.6
667.392	586.6
667.812	585.4
668.212	588.8
668.632	597.2
669.053	585.6
669.453	592
669.874	587.4
670.273	591.6
670.694	568.2
671.116	602.8
671.515	595.4
671.937	584.8
672.337	587
672.758	587
673.158	598.2
673.58	591
673.98	591.8
674.402	594.6
674.824	583.4
675.224	585.8
675.646	580.2
676.047	587.6
676.469	592
676.869	595.2
677.292	594.4
677.693	591.6
678.115	590.6
678.516	596
678.939	591
679.34	580.6
679.762	600.6
680.164	598.8
680.586	582.4
680.988	589.2
681.411	619.8
681.812	583.4
682.236	579.6
682.637	593.4
683.061	581.8
683.462	592.4
683.864	594.8
684.288	593.8
684.69	583.4
685.114	596.2
685.516	595.4
685.94	579.6
686.342	596.8
686.766	588
687.168	593.8
687.571	605.4
687.995	592.8
688.398	581.6
688.822	591
689.225	607
689.628	609.2
690.052	586
690.456	597.8
690.88	588.6
691.284	577.6
691.687	588.6
692.112	585.4
692.515	584.6
692.919	598.4
693.344	596
693.747	595.6
694.173	584.8
694.577	599.8
694.98	590
695.406	587.2
695.81	588.8
696.214	596
696.64	594.4
697.044	586.8
697.448	602.4
697.874	586.2
698.279	593.4
698.684	581.2
699.11	576.6
699.514	596.2
699.919	586.6
700.324	579
700.75	587.2
701.156	585
701.561	606.4
701.987	597.6
702.393	601.4
702.798	598.6
703.203	583
703.63	583.2
704.036	587
704.442	582
704.847	573.6
705.274	580.8
705.68	595.4
706.086	591.8
706.492	580
706.92	578.6
707.326	591.8
707.732	587.8
708.139	574.4
708.545	577.2
708.973	583.8
709.38	583.6
709.786	577.2
710.193	593.8
710.6	585
711.028	585.2
711.435	588.8
711.842	585.4
712.249	586.4
712.656	584.6
713.064	595.6
713.492	575.8
713.9	585.4
714.307	596.6
714.715	594.2
715.123	585.8
715.53	596
715.938	599.4
716.367	586.4
716.775	582.4
717.184	579.4
717.592	586.8
718	595.6
718.408	618.2
718.816	632
719.225	588
719.633	598.8
720.042	578.6
720.472	588.4
720.881	608.6
721.29	590.8
721.699	575.8
722.108	582.4
722.517	585
722.926	579.4
723.335	595.4
723.744	590.2
724.154	585.6
724.563	591.6
724.973	586.6
725.382	585.4
725.792	581.6
726.202	581.4
726.612	604.2
727.022	594
727.432	583.6
779.813	585
780.223	632
780.634	581
781.044	580.2
781.454	591.6
781.865	593.2
782.276	582.6
782.686	593.4
783.097	592.6
783.508	592.6
783.919	586.2
784.33	594
784.741	596.8
785.152	577
785.563	574.4
785.974	573.2
786.386	596.4
786.776	583
787.188	581.8
787.599	583.4
788.011	596
788.423	593.2
788.835	577.2
789.247	573.4
789.659	591.4
790.071	581.2
790.483	621.4
790.874	586.8
791.286	594.8
791.699	584.4
792.111	588.4
792.524	588.2
792.937	584.8
793.349	577.2
793.741	577
794.154	582.4
794.567	608.2
794.98	585.4
795.393	580
795.785	599.4
796.198	576.8
796.612	592.4
797.026	581.2
797.439	572.4
797.831	585.6
798.245	580.2
798.659	587.4
799.073	573.8
799.487	577.8
799.88	581.8
800.294	582.2
800.708	588.8
801.123	585.2
801.516	598.8
801.93	573.4
802.345	570
802.76	585.8
803.153	606.2
803.568	602.2
803.983	589.4
804.377	588.2
804.792	576.2
805.207	566.6
805.601	596.2
806.016	619.8
806.432	583.8
806.826	613
807.242	596.8
807.658	594
808.052	586.6
808.468	578.4
808.884	586
809.279	585.4
809.695	603.4
810.111	604.2
810.506	592.6
810.922	596.4
811.339	586
811.734	587
812.151	573.2
812.546	580.4
812.963	581.8
813.38	588.6
813.776	589
814.193	605.2
814.589	575.8
815.006	577
815.402	582.2
815.82	576.8
816.237	580.6
816.633	579.8
817.051	565
817.448	576
817.866	574.2
818.262	597.8
818.68	568.8
819.077	570.4
819.495	574.4
819.892	619.8
820.311	571.2
820.708	579.8
821.127	575.6
821.524	596.8
821.943	579
822.34	599.8
822.759	580.4
823.157	576.6
823.576	594.2
823.974	579.8
824.393	604.6
824.791	579.4
825.189	571.8
825.609	582.2
826.007	584.4
826.427	574.8
826.826	584.8
827.246	586.8
827.644	569.8
828.043	588
828.463	588
828.862	585.8
829.261	585.6
829.682	572
830.081	594.8
830.502	579.2
830.901	595
831.301	598.6
831.722	575.6
832.121	576.4
832.521	568
832.943	588
833.342	585.4
833.742	579.2
834.164	577
834.564	580.6
834.965	586
835.386	577.6
835.787	573.6
836.188	590
836.588	580.2
837.01	574.6
837.411	576.4
837.812	586.4
838.213	590.4
838.636	585.6
839.037	651.6
839.438	590.8
839.84	584.8
840.263	587.4
840.664	584.2
841.066	581
841.468	588
841.891	575
842.293	593.2
842.695	590.4
843.098	595.4
843.5	577.8
843.902	586
844.326	583.6
844.729	581.6
845.131	592.2
845.534	590.2
845.937	598.2
846.34	601.4
846.764	571.6
847.167	586.2
847.571	577.2
847.974	591.2
848.377	584
848.781	627.8
849.184	597.6
849.588	582.4
849.992	581
850.396	583
850.821	601.6
851.225	589
851.63	581.2
852.034	593
852.438	573.6
852.843	609.4
853.247	575.6
853.652	572.8
854.057	592
854.462	598
854.867	590.4
855.272	609.2
855.677	578.8
856.082	571.4
856.487	572.4
856.893	582.8
857.298	585.8
857.704	580
858.11	582
858.516	593.2
858.922	584
859.328	591
859.734	586.6
860.14	588.4
860.525	581.6
860.931	581
861.338	585.8
861.745	587.4
862.151	577.6
862.558	586.6
862.965	580.8
863.372	588.8
863.779	584.2
864.186	592.2
864.572	586.6
864.98	603.6
865.387	612.4
865.795	579
866.203	590.8
866.61	577.4
867.018	581.8
867.405	588
867.813	572.8
868.221	583.6
868.63	586.8
869.038	598.6
869.425	620
869.834	587.4
870.243	577.2
870.652	575
871.039	575.2
871.448	586
871.857	582.2
872.266	584.4
872.654	594
873.064	582
873.473	596.4
873.883	575.2
874.271	576.8
874.681	591.4
875.091	569.6
875.48	594.4
875.89	601.4
876.3	580.2
876.689	572.2
877.1	587.2
877.51	592
877.9	605.2
878.31	573.8
878.721	603.6
879.111	583.6
879.522	587.8
879.933	572.8
880.323	570.2
880.734	581.2
881.125	585.6
881.536	575.6
881.948	576.2
882.338	575.6
882.75	589.8
883.141	583.4
883.553	587
883.944	609
884.356	595.4
884.769	578.6
885.16	581.4
885.573	584.6
885.964	577.6
886.377	581
886.768	571
887.181	579.6
887.573	575.8
887.987	587.8
888.378	591.6
888.792	583
889.184	628.4
889.598	578.8
889.99	582.4
890.383	583.2
890.797	574.4
891.19	589
891.604	578.8
891.997	569
892.411	572.8
892.805	579.8
893.198	574.8
893.613	560.6
894.006	584.6
894.421	574.8
894.815	578.6
895.209	574
895.624	622.4
896.018	596.8
896.412	578
896.828	587.8
897.222	586
897.617	581
898.033	604.4
898.427	586.4
898.822	579
899.239	572.2
899.634	563.4
900.029	597.4
900.424	572.4
900.841	565.6
901.236	583.6
901.632	587.4
902.027	637.4
902.445	581
902.841	581
903.237	579
903.633	597.8
904.05	581.4
904.447	583.2
904.843	595.6
905.24	572.2
905.636	569.6
906.033	579.6
906.451	589
906.848	567.2
907.246	574.6
907.643	582.6
908.04	589.4
908.438	593.2
908.835	576.6
909.254	573.2
909.652	583.8
910.05	565.4
910.448	576
910.846	578.8
911.244	564.8
911.643	589
912.041	572.6
912.44	589.4
912.839	561.6
913.237	567.8
913.636	563.8
914.035	573.4
914.434	573.4
914.834	586
915.233	587.4
915.633	576.8
916.032	574.2
916.432	568.6
916.832	595.2
917.232	575.8
917.632	565
918.032	589.6
918.432	579.2
918.833	573.2
919.233	579.6
919.634	572.8
920.035	582.2
920.436	574.8
920.837	581.6
921.238	581.6
921.639	571
922.019	588.6
922.42	584.8
922.822	585.6
923.224	577.4
923.625	576.8
924.027	576.2
924.429	609.6
924.81	583.4
925.212	582.2
925.615	585.2
926.017	582.4
926.42	588.4
926.801	582.4
927.204	579
927.607	584.2
928.01	594
928.413	577.8
928.795	567
929.199	572.4
929.602	570
930.006	570.6
930.388	570.8
930.792	581.8
931.196	576.4
931.579	612.2
931.983	568.8
932.388	626
932.771	581.4
933.176	571.2
933.58	583
933.964	587.8
934.369	574.6
934.774	581.8
935.158	576.2
935.563	585
935.947	577
936.353	587.4
936.759	582.8
937.143	592.2
937.549	582.4
937.934	588.4
938.34	597.4
938.746	571.2
939.131	579.2
939.538	573.2
939.923	590.4
940.33	581
940.716	581.6
941.123	581
941.508	589
941.916	596.8
942.302	577.8
942.709	567.8
943.096	573.4
943.503	587.2
943.89	567
944.298	580.8
944.685	605.6
945.072	580.8
945.48	590
945.867	572
946.276	577.6
946.663	603.6
947.051	598
947.46	595.8
947.848	578.6
948.257	577.6
948.645	581
949.033	571.6
949.443	574.4
949.831	614.4
950.22	568.4
950.63	592.4
951.018	603.6
951.407	584.6
951.796	577
952.207	578.2
952.596	579.8
952.985	579.6
953.375	608.4
953.786	578.4
954.176	573.4
954.566	579.2
954.956	574
955.367	579.6
955.758	596.4
956.148	567.8
956.539	593
956.929	567
957.341	566.6
957.732	574.2
958.123	586.8
958.515	571
958.906	576
959.297	577.6
959.689	577.8
960.102	571.6
960.494	580.8
960.886	577.6
961.278	573.6
961.67	606.8
962.062	616.8
962.455	577.8
962.847	571.8
963.24	578
963.633	578
964.026	574.8
964.419	580.2
964.812	588.2
965.206	574.4
965.599	579.8
965.993	580.2
966.386	570.4
966.78	590
967.174	593.4
967.569	572.2
967.963	575.2
968.357	576.8
968.752	573.6
969.146	573.8
969.541	572.2
969.936	573
970.331	579.6
970.705	575.4
971.1	578.4
971.496	585.6
971.892	572.8
972.287	583.2
972.683	581.8
973.079	578.2
973.454	583.4
973.85	581.2
974.247	583.8
974.643	595
975.04	574.6
975.415	581.4
975.812	572.6
976.209	582.8
976.607	560.6
976.982	587.6
977.38	589.2
977.778	573
978.175	579.2
978.552	578.2
978.95	577.2
979.348	584
979.725	630
980.123	574.8
980.522	580.4
980.899	572
981.298	577.6
981.697	579
982.075	578.6
982.474	569.6
982.852	573.4
983.251	589.4
983.651	573.4
984.029	583.4
984.429	574.2
984.808	570.2
985.208	576.4
985.609	567
985.987	563.4
986.388	577.8
986.768	587.4
987.168	571.6
987.548	581
987.949	591.6
988.329	586.2
988.731	568
989.111	567.4
989.491	576.4
989.893	577.2
990.273	583.6
990.676	574.6
991.057	565.4
991.459	577.6
991.84	569.2
992.221	561.8
992.624	594.6
993.006	583.6
993.388	579
993.791	591.2
994.173	578.4
994.576	606.2
994.959	568.4
995.341	574
995.724	582.8
996.128	572
996.511	580.2
996.894	570.4
997.298	569.4
997.681	573.2
998.065	577
998.448	571.2
998.854	578
999.237	569
999.621	579.6
1000.01	583.6
1000.39	575.8
1000.8	561.2
1001.18	571.2
1001.56	573
1001.95	572
1002.33	583.8
1002.72	572
1003.13	572.6
1003.51	571.4
1003.9	567.6
1004.28	580.8
1004.67	565.6
1005.06	577
1005.44	598.6
1005.83	556.8
1006.21	569.2
1006.6	570.4
1006.99	579.6
1007.37	581.4
1007.76	577.4
1060.12	565.6
1060.51	571.2
1060.89	580.2
1061.28	579.8
1061.67	590.6
1062.06	578.6
1062.45	584
1062.83	564.4
1063.22	588
1063.61	609.6
1064	590
1064.39	577.2
1064.78	565.4
1065.14	589.4
1065.53	575
1065.92	572.6
1066.31	573.8
1066.7	574.4
1067.09	583.8
1067.46	592
1067.85	580.4
1068.24	577.4
1068.63	574.6
1069.02	572
1069.39	583.6
1069.78	575
1070.17	574.2
1070.57	570.8
1070.93	574
1071.33	573.8
1071.72	577.6
1072.11	580
1072.48	576.6
1072.87	580.6
1073.26	565.2
1073.64	570
1074.03	569
1074.4	582.6
1074.79	576.4
1075.19	574.2
1075.56	581
1075.95	578.6
1076.34	577.8
1076.72	581.8
1077.11	581.2
1077.48	589.2
1077.88	582
1078.25	574
1078.64	579.4
1079.02	585
1079.41	580.2
1079.78	573.8
1080.18	570.4
1080.55	646.8
1080.95	564.4
1081.32	575
1081.72	583.8
1082.09	576.2
1082.49	568.8
1082.86	574.6
1083.24	568
1083.63	562.4
1084.01	572
1084.38	579.4
1084.78	571.4
1085.16	584
1085.55	592.8
1085.93	594
1086.31	576.2
1086.7	598.4
1087.08	580.2
1087.46	569
1087.83	570
1088.23	586.8
1088.61	568.2
1088.99	576.6
1089.36	568.4
1089.76	563.2
1090.14	574.8
1090.52	575.4
1090.9	576.2
1091.27	591.6
1091.67	602.6
1092.05	589
1092.43	575.8
1092.81	585
1093.19	578
1093.57	566.4
1093.95	572.2
1094.35	591
1094.73	573.8
1095.11	570.2
1095.49	573.4
1095.87	570
1096.25	586.4
1096.63	586.8
1097.01	570.6
1097.39	579.6
1097.77	569.2
1098.15	577.2
1098.53	563.8
1098.91	579
1099.29	570.4
1099.68	587
1100.06	582.8
1100.44	573.2
1100.82	572.6
1101.18	584
1101.56	571.4
1101.95	568.2
1102.33	570.4
1102.71	579.2
1103.1	570.8
1103.48	556.2
1103.86	576
1104.22	576
1104.61	561.2
1104.99	568.4
1105.38	572.6
1105.76	577.2
1106.12	575.4
1106.51	617
1106.89	582.2
1107.26	578.4
1107.64	577
1108.03	564.4
1108.41	572.8
1108.78	569.2
1109.16	579.4
1109.55	591
1109.91	565
1110.3	565.6
1110.69	589.8
1111.05	568.4
1111.44	574
1111.8	571.6
1112.19	568
1112.58	573.8
1112.94	567.8
1113.33	584.4
1113.7	567.8
1114.09	571.6
1114.45	563.8
1114.84	570.8
1115.21	576.2
1115.6	565.4
1115.96	584
1116.35	578.8
1116.72	567.8
1117.11	580
1117.48	572.6
1117.85	576.2
1118.24	583.2
1118.6	572.2
1118.99	573.6
1119.36	587.4
1119.73	579.4
1120.12	578.2
1120.49	563.4
1120.86	577.8
1121.25	574.2
1121.62	559.4
1121.99	568.6
1122.38	585
1122.76	569.2
1123.13	565.4
1123.5	577
1123.89	587
1124.26	565.6
1124.63	579.6
1125	577.8
1125.4	570.6
1125.77	568.6
1126.14	554
1126.51	571.4
1126.88	579
1127.26	560.2
1127.63	561.2
1128.02	572.6
1128.4	567.4
1128.77	567
1129.14	577
1129.52	573.6
1129.89	581.8
1130.26	573.2
1130.64	567.6
1131.01	566.4
