#lambda/nm	C1
208.295	509.2
208.67	461.2
209.045	431.8
209.419	429.2
209.794	609.2
210.169	597
210.544	723
210.919	612.4
211.295	613.2
211.67	619.6
212.045	615.2
212.421	602.8
212.796	649
213.172	609.6
213.547	605
213.923	614.8
214.299	606.4
214.675	626.2
215.051	623.2
215.427	626.8
215.803	629.8
216.179	630
216.555	606.2
216.932	621.8
217.308	610.6
217.684	614
218.061	619.4
218.438	619.8
218.814	612.2
219.191	617.6
219.568	609.8
219.945	611.6
220.322	621
220.699	623
221.076	622.8
221.453	616.4
221.83	608.2
222.208	602.2
222.585	600.2
222.962	617.6
223.34	617.2
223.717	612.6
224.095	610.4
224.473	612
224.851	602.8
225.229	590.6
225.607	624.6
225.985	603.6
226.363	612.2
226.741	608.6
227.119	615.2
227.497	628.2
227.876	608.8
228.254	624.8
228.633	616.2
229.011	618.8
229.39	625.8
229.769	618.6
230.148	619.8
230.527	634.2
230.905	622.4
231.284	618.8
231.664	608.2
232.043	634.6
232.422	626.2
232.801	612.2
233.181	616
233.56	611.4
233.94	617.6
234.319	601.6
234.699	613.2
235.079	656.8
235.458	646.6
235.838	636.4
236.218	601.2
236.598	601.6
236.978	609.6
237.358	606
237.738	606.2
238.119	616
238.499	605.2
238.88	612.2
239.26	636
239.641	607.4
240.021	612.8
240.402	619
240.783	619.8
241.163	620.4
241.544	617.2
241.925	619.4
242.306	635.4
242.687	616.2
243.069	624.6
243.45	628.8
243.831	610.2
244.212	613.4
244.594	656
244.975	624.2
245.357	621.2
245.739	614.6
246.12	614.8
246.502	634.4
246.884	612.4
247.266	610
247.648	627
248.03	636.4
248.412	618
248.794	619.2
249.176	614.4
249.559	626.2
249.941	608.8
250.323	602.6
250.706	612.6
251.089	620.4
251.471	624.8
251.854	617.6
252.237	615.6
252.62	627.4
253.002	616.8
253.385	618.4
253.769	635.8
254.152	615.8
254.535	626
254.918	611
255.301	613.4
255.685	619.2
256.068	611
256.452	640.8
256.835	626.2
257.219	623.2
257.603	629.6
257.986	606
258.37	620
258.754	601.6
259.138	616.4
259.522	624.2
259.906	626.8
260.29	625
260.675	619.2
261.059	618.8
261.443	612
261.828	631.4
262.212	623.8
262.597	604.4
262.981	614.2
263.366	625.2
263.751	624.4
264.136	620
264.521	617.8
264.906	607.6
265.291	623.6
265.676	612.2
266.061	623.4
266.446	633
266.831	626
267.217	633.6
267.602	625.6
267.987	622
268.373	605.8
268.759	618.2
269.144	625.8
269.53	626
269.916	603.2
270.302	613.6
270.688	626.6
271.074	620
271.46	618.8
271.846	649.6
272.232	619
272.618	615.6
273.004	615.2
273.391	631
273.777	623.6
274.164	624.4
274.55	631.4
274.937	620.8
275.324	611
275.71	622.6
276.097	618.6
276.484	609.4
276.871	620.8
277.258	629.8
277.645	617.6
278.032	611.2
278.419	618.6
278.807	619.2
279.194	612.4
279.581	614.8
279.969	615.8
280.356	616.6
280.744	612.4
281.131	640.8
281.519	636.2
281.907	619.2
282.295	615.2
282.682	631
283.07	620.4
283.458	630
283.846	622
284.235	624.2
284.623	635.2
285.011	610.6
285.399	635.8
285.788	614.2
286.176	603.8
286.565	637.2
286.953	618.6
287.342	607.8
287.731	607.6
288.119	603.4
288.508	606
288.897	604.2
289.286	600.2
289.675	615.8
290.064	627.8
290.453	613.4
290.821	610
291.21	634.8
291.599	610.2
291.989	615.2
292.378	624.8
292.768	631.6
293.157	625.2
293.547	620
293.936	616.4
294.326	611
294.716	626.2
295.106	611
295.496	633
295.886	624.6
296.276	613
296.666	609
297.056	607
297.446	603.2
297.836	630.2
298.227	615.2
298.617	622.4
299.008	640.4
299.398	620.4
299.789	606.2
300.179	620.4
300.57	636.4
300.961	617.6
301.352	611
301.742	626.2
302.133	622.6
302.524	616.4
302.915	619
303.307	604.2
303.698	622.2
304.089	626.8
304.48	608.8
304.872	617.8
305.263	628.6
305.655	612.4
306.046	627.4
306.438	623.8
306.829	609.6
307.221	638.8
307.613	616.6
308.005	630.6
308.397	631.4
308.789	637
309.181	642.6
309.573	640.4
309.965	622.6
310.357	611.8
310.749	620.4
311.142	605
311.534	609.2
311.926	622.4
312.319	620
312.711	608.4
313.104	627.2
313.497	613.4
313.889	652.8
314.282	632.6
314.675	646.4
315.068	623.4
315.461	628
315.854	650.8
316.247	625.4
316.64	615
317.033	622.2
317.405	629.8
317.798	625.8
318.192	613.2
318.585	610.4
318.979	621.6
319.372	604.8
319.766	609.6
320.16	623.6
320.553	626.6
320.947	634.4
321.341	610.2
321.735	612.4
322.129	602.8
322.523	638.6
322.917	614.8
323.311	628.8
323.705	616.4
324.099	619.8
324.494	630.6
324.888	628
325.282	618.8
325.677	631.8
326.071	626.6
326.466	632.8
326.861	622
327.255	633.4
327.65	629.4
328.045	643.2
328.44	622.4
328.835	614.8
329.23	605.2
329.625	637.2
330.02	608.4
330.415	641.6
330.81	616.4
331.206	621.8
331.601	611.6
331.996	623.2
332.37	643.8
332.766	608
333.161	643.8
333.557	610.6
333.953	624.6
334.348	1044
334.744	617.2
335.14	616.2
335.536	611.4
335.932	631.6
336.328	615.8
336.724	630.8
337.12	614.2
337.516	621.2
337.913	620.2
338.309	633.6
338.705	621.4
339.102	630.8
339.498	615
339.895	631.2
340.291	621.8
340.688	622.4
341.085	610.6
341.481	618.6
341.878	613.2
342.275	639
342.672	611.8
343.069	617.6
343.466	606.4
343.842	624.2
344.239	612.4
344.636	620
345.033	611.2
345.431	612
345.828	615.4
346.225	610.4
346.623	649
347.02	617.6
347.418	623
347.816	629.4
348.213	610.2
348.611	627
349.009	611.8
349.407	620.8
349.805	609.8
350.203	608.2
350.601	618.8
350.999	609.4
351.397	671.8
351.795	613.6
352.193	623.4
352.57	629
352.969	628.6
353.367	614.8
353.766	612.6
354.164	617.6
354.563	629.8
354.961	618.8
355.36	617.8
355.759	610.4
356.158	610.6
356.557	607.4
356.956	606.2
357.355	600.4
357.754	608.2
358.153	618.8
358.552	635.8
358.951	606.6
359.35	630.2
359.75	609.2
360.149	607
360.527	603.4
360.926	607
361.326	619.8
361.726	624
362.125	602
362.525	624
362.925	612
363.325	615.6
363.724	603.6
364.124	601.2
364.524	604.2
364.924	612.2
365.324	625.2
365.725	603.4
366.125	616
366.525	613.6
366.904	608.2
367.304	589.8
367.705	636.2
368.105	628.6
368.506	611.2
368.906	610.2
369.307	611.6
369.708	620
370.108	608
370.509	624.4
370.91	605
371.311	609.4
371.712	603.8
372.113	613.8
372.514	604.6
372.894	609
373.295	600.2
373.696	625
374.097	623.8
374.499	646
374.9	609
375.301	602.4
375.703	608
376.105	596.2
376.506	613.4
376.908	621.8
377.309	615.2
377.711	612.4
378.113	618.8
378.493	614.2
378.895	600.4
379.297	625.2
379.699	595.8
380.102	605.2
380.504	607.6
380.906	606.2
381.308	636.4
381.71	605.8
382.113	622.6
382.515	609
382.918	616.4
383.299	610.8
383.701	623.4
384.104	612
384.507	587.4
384.909	604.4
385.312	594
385.715	600
386.118	605.2
386.521	595
386.924	618.6
387.327	601.6
387.709	599
388.112	584.4
388.515	604.8
388.918	606.2
389.322	614.2
389.725	600.4
390.129	633.2
390.532	611.4
390.936	604.6
391.339	595.4
391.743	602.6
392.125	598.4
392.529	615.2
392.933	620.8
393.337	616.4
393.74	606.4
394.144	609.8
394.548	607.4
394.953	611.6
395.357	617.2
395.761	606.8
396.144	613
396.548	610.2
396.952	603.4
397.357	609.2
397.761	601.2
398.166	604.8
398.57	606.4
398.975	598.2
399.379	605.6
399.763	655.2
400.168	610.8
400.572	600
400.977	603.2
401.382	630.8
401.787	613.2
402.192	623.2
402.597	620.4
403.002	591
403.386	625.2
403.791	625.4
404.197	594
404.602	602.2
405.007	613.8
405.413	599.4
405.818	605.6
406.224	595.6
406.608	608.6
407.014	600.2
407.42	621.6
407.825	603
408.231	619
408.637	609.4
409.043	629.4
409.449	607.8
409.834	599.4
410.24	610.4
410.646	610.8
411.052	618.2
411.458	615
411.865	624.6
412.271	621.4
412.677	614.2
413.062	608.8
413.469	593.6
413.875	629.2
414.282	627.8
414.689	618.4
415.095	610.8
415.502	601.2
415.888	607.4
416.294	596.6
416.701	636.6
417.108	606.4
417.515	612.2
417.923	604
418.33	624.4
418.715	613
419.123	601.2
419.53	609.6
419.937	604.8
420.345	618.2
420.752	606
421.16	623
421.546	606
421.953	627.4
422.361	608
422.769	611.4
423.177	597.6
423.585	637.6
423.992	626.8
424.379	624.2
424.787	617.2
425.195	634.8
425.603	605.8
426.011	623.4
426.419	619
426.806	617
427.214	608.2
427.623	618
428.031	632.8
428.44	611.8
428.848	623.4
429.235	625.8
429.644	611.2
430.053	612.8
430.461	620.4
430.87	630
431.279	624.8
431.666	610.2
432.075	616.6
432.484	622.6
432.893	612.8
433.302	636
433.711	651.4
434.099	614.2
434.508	614.6
434.918	607
435.327	626.2
435.737	621.4
436.125	620.6
436.534	629.8
436.944	624.2
437.353	623.8
437.763	651
438.173	632.4
438.561	654.2
438.971	620.2
439.381	640.6
439.791	650.8
440.201	637.6
440.589	657.6
440.999	657
441.409	657.2
441.819	648
442.23	668
442.619	670
443.029	666.4
443.439	672.8
443.85	690.4
444.26	694.4
444.649	694.2
445.06	680
445.471	668
445.881	683.4
446.292	701.6
446.682	720.8
447.092	680.6
447.503	745.6
447.914	704
448.325	701
448.715	703
449.126	693.6
449.537	705.6
449.948	714.4
450.338	712.2
450.75	722
451.161	703.8
451.572	731.8
451.984	706.2
452.374	696.4
452.786	722.2
453.197	725.4
453.609	728.4
453.999	715.6
454.411	716.4
454.823	735
455.235	738.2
455.647	722.4
456.037	747.8
456.449	718.2
456.862	731.4
457.274	732
457.665	722.4
458.077	742.6
458.489	764.4
458.902	734.8
459.293	751.4
459.705	733.2
460.118	727.8
460.53	742.2
460.921	745.4
461.334	739
461.747	742
462.16	759.8
462.551	754.8
462.964	759.8
463.377	738.6
463.79	741.6
464.182	770
464.595	746.4
465.008	756.4
465.421	757.8
465.813	744.2
466.226	760.6
466.64	757.2
467.053	802
467.445	767.8
467.859	777.2
468.272	767.2
468.686	776.8
469.078	763.2
469.492	757.4
469.906	772.4
470.298	780.2
470.712	759.2
471.126	815.6
471.54	764.8
471.933	756.4
472.347	770
472.761	767
473.175	760.4
473.568	770.4
473.982	749
474.397	768
474.79	761.6
475.204	771.8
475.619	765.4
476.033	769.6
476.426	779.4
476.841	761
477.256	795
477.649	752.4
478.064	751.4
478.479	768.2
478.872	765.4
479.287	756
479.702	751.8
480.118	764.8
480.511	766
480.927	757
481.342	766.4
481.736	772.2
482.151	758.8
482.566	776
482.96	764.2
483.376	778.4
483.792	752.4
484.186	760.4
484.602	753
485.017	765.4
485.412	757.6
485.827	770.6
486.243	765.2
486.638	779.8
487.054	760.4
487.47	764.2
487.865	753.6
488.281	754.6
488.697	749.8
489.092	755.8
489.508	748.2
489.925	767.4
490.32	754.4
490.736	760
491.153	747
491.548	739.2
491.964	759.4
492.381	736.8
492.776	751
493.193	747.4
493.61	759
494.006	744.2
494.422	748.2
494.84	734.8
495.235	749.8
495.652	738.4
496.069	735.8
496.465	729.2
496.883	741.4
497.3	765
497.696	738
498.113	739.2
498.509	729.6
498.927	727.2
499.344	720.8
499.741	718.8
500.158	743.8
500.576	723.8
500.973	721.6
501.39	713.4
501.787	710.2
502.205	722
502.623	721.8
503.02	708.8
503.438	708.6
503.856	722.8
504.253	724
504.671	714.8
505.068	716
505.486	702
505.905	728.6
506.302	714.4
506.72	722.6
507.118	707.2
507.536	702
507.955	702.2
508.352	713.8
508.771	717.2
509.169	720.2
509.587	703.8
510.006	705.6
510.404	696
510.823	702
511.221	706.2
511.64	695.8
512.038	709
512.457	705.6
512.877	700.8
513.275	684.2
513.694	700.6
514.092	691.2
514.512	703.8
514.91	707.8
515.33	690.6
515.749	694.4
516.148	693
516.568	702.2
516.966	686.2
517.386	691.4
517.785	689.6
518.205	680
518.603	681.8
519.024	685.4
519.444	692.4
519.843	693
520.263	696.2
520.662	677.6
521.082	694
521.481	683.6
521.902	686.6
522.301	690.4
522.722	682.8
523.121	681.4
523.542	672.6
523.963	675.6
524.362	672.8
524.783	672.4
525.183	668.6
525.604	671
526.003	666.8
526.425	661.6
526.824	674.6
527.246	681.6
527.646	681.8
528.067	675.8
528.467	668
528.888	671.8
529.289	664
529.71	663
530.11	662
530.532	663.8
530.932	656.8
531.354	656.4
531.755	698.8
532.176	675.2
532.577	658.4
532.999	664.2
533.4	654.4
533.822	674.2
534.223	673.6
534.645	653
535.046	656.4
535.468	660.2
535.869	671.2
536.292	645.6
536.693	680.2
537.115	663.2
537.516	648.8
537.939	646.2
538.34	671.6
538.742	678.4
539.165	654.8
539.566	656.2
539.989	651.4
540.391	644.2
540.814	656.4
541.216	645
541.639	659
542.041	659.4
542.464	645.6
542.866	638.8
543.268	644.8
543.691	651.8
544.093	656.2
544.517	670.4
544.919	638.4
545.343	672.8
545.745	634.6
546.147	651
546.571	644.4
546.974	638.2
547.398	647
547.8	657.4
548.224	650
548.627	641.4
549.03	648.2
549.454	633.2
549.857	626
550.281	644.8
550.684	635.8
551.087	647.4
551.512	646.8
551.915	645.4
552.34	642.2
552.743	628.6
553.146	643
553.571	636.8
553.975	651.4
554.399	641
554.803	685.6
555.207	630.6
555.632	638
556.036	631.8
556.461	632.6
556.865	639.2
557.268	626.4
557.694	634
558.098	640.6
558.502	638
558.927	626.6
559.332	634.8
559.736	626
560.162	631.8
560.566	631.4
560.992	640.6
561.396	632.8
561.801	628.4
562.227	624
562.631	631.4
563.036	625.8
563.462	636.4
563.867	625.6
564.272	612.6
564.698	629.2
565.103	620.4
565.508	643.6
565.935	628.8
566.34	623.6
566.745	635.6
567.172	613.2
567.577	634.2
567.982	646.4
568.409	621.8
568.815	617.8
569.22	624.6
569.626	630.8
570.053	606
570.459	621.8
570.865	627
571.292	625.2
571.698	623.6
572.104	610.4
572.531	615.4
572.937	633.6
573.343	616.2
573.75	616.2
574.177	613.8
574.583	621.4
574.99	623
575.396	625.8
575.824	617.8
576.231	623
576.637	615
577.065	635
577.472	614.8
577.879	619
578.286	629.4
578.714	609.4
579.121	612.8
579.528	619.4
579.935	627.2
580.364	610.4
580.771	590.4
581.178	600.6
581.585	606.2
582.014	614.6
582.421	606.2
582.829	609
583.236	611.2
583.644	598.8
584.073	599.8
584.481	614.8
584.889	599.6
585.296	622.8
585.726	616.6
586.134	605.2
586.542	612
586.95	633
587.358	605
587.787	610.8
588.196	621.6
588.604	608.8
589.012	607.8
589.421	605.6
589.851	607.2
590.259	612.8
590.668	605.8
591.076	643
591.485	613
591.894	614
592.324	622.8
592.733	614.6
593.142	601.2
593.551	609.6
593.96	611.4
594.369	593
594.8	588
595.209	595.8
595.618	597
596.028	598.2
596.437	596.4
596.847	600.8
597.256	593.2
597.687	609
598.097	597
598.507	595
598.917	604.4
599.327	606.6
599.736	596
600.146	607
600.556	605
600.988	609.2
601.398	599
601.808	607.4
602.219	589
602.629	599.4
603.039	597.2
603.45	627.6
603.86	603.8
604.271	613.8
604.703	600.4
605.114	600
605.525	606.6
605.935	617.4
606.346	623.4
606.757	610.2
607.168	600
607.579	589.2
607.99	612
608.402	596.4
608.813	600.6
609.224	602.8
609.636	593.8
610.047	589
610.48	594.8
610.892	616
611.303	602.6
611.715	595.8
612.127	590
612.539	593
612.95	597
613.362	588.8
613.774	585.4
614.186	589.4
614.599	592.8
615.011	589.6
615.423	603.8
615.835	593
616.248	585.2
616.66	602
617.073	593.6
617.485	596.4
617.898	607.4
618.311	595.4
618.723	594.8
619.136	626.4
619.549	614.8
619.962	627.6
620.375	588.2
620.788	600.8
621.201	593.4
621.614	609.2
622.028	603.4
622.441	605.2
622.854	615
623.268	596.6
623.681	607.8
624.095	595.8
624.509	615.4
624.922	593.2
625.336	584.4
625.728	601.2
626.142	604.6
626.556	618.6
626.97	613.8
627.384	599.6
627.799	599.6
628.213	610.6
628.627	605
629.041	601.8
629.456	597.6
629.87	599.6
630.285	602.4
630.699	607.2
631.093	598.2
631.507	598.8
631.922	595.8
632.337	608
632.752	590.2
633.167	600
633.582	595.4
633.997	590.8
634.412	593.6
634.806	603
635.221	594.4
635.637	603.2
636.052	594.8
636.468	603.6
636.883	618
637.299	602
637.715	585.2
638.109	597.6
638.525	587.2
638.941	611.8
639.357	602.6
639.773	612
640.189	596.4
640.584	591.2
641	603.4
641.416	591
641.832	591
642.249	586.6
642.665	593.6
643.06	603.6
643.477	608.4
643.894	578.2
644.31	584.6
644.727	586.2
645.123	597.8
645.54	594.4
645.957	596.4
646.374	607.4
646.77	600.8
647.187	625
647.604	596.6
648.021	578.2
648.439	590.6
648.835	599.8
649.252	598
649.67	595.8
650.088	593.2
650.484	602.8
650.902	605.2
651.32	603.4
651.738	591.6
652.134	598.6
652.552	615
652.971	597.2
653.389	592.2
653.786	608.8
654.204	614.4
654.622	585.4
655.019	595.8
655.438	593.2
655.857	594.4
656.275	598.8
656.673	584.2
657.091	603
657.51	592.4
657.908	602.6
658.327	609.6
658.746	581.8
659.144	594.6
659.563	616.8
659.982	596
660.38	579.2
660.8	591.6
661.219	602
661.617	595.8
662.037	595.2
662.457	606.2
662.855	584.2
663.275	625.6
663.695	593.8
664.094	594.6
664.514	594
664.934	590.6
665.333	602.4
665.753	597.6
666.152	587
666.572	593
666.993	602.4
667.392	589.8
667.812	588
668.212	589.2
668.632	610.6
669.053	588.2
669.453	595.2
669.874	595.4
670.273	591.6
670.694	585.4
671.116	603.6
671.515	594.2
671.937	593
672.337	592
672.758	589.2
673.158	601.2
673.58	576
673.98	588.4
674.402	601.2
674.824	594.2
675.224	584.8
675.646	585.4
676.047	588.4
676.469	587
676.869	598.4
677.292	591.8
677.693	588.4
678.115	575.4
678.516	600.8
678.939	590.8
679.34	583.6
679.762	603.8
680.164	598.6
680.586	584
680.988	595.2
681.411	613.2
681.812	587.8
682.236	586
682.637	584.2
683.061	587.2
683.462	597
683.864	587.8
684.288	593.6
684.69	583
685.114	603.8
685.516	596
685.94	581.6
686.342	597.6
686.766	586
687.168	589.8
687.571	607
687.995	602
688.398	587
688.822	587.6
689.225	604.6
689.628	606.2
690.052	596.2
690.456	589.8
690.88	586
691.284	576.4
691.687	591.6
692.112	582.8
692.515	578.2
692.919	594.6
693.344	594.2
693.747	583.6
694.173	576.8
694.577	591.8
694.98	581.6
695.406	592.8
695.81	594
696.214	587.6
696.64	587
697.044	589.8
697.448	596.6
697.874	581.4
698.279	589.4
698.684	582
699.11	584.6
699.514	583.6
699.919	581
700.324	583.4
700.75	585
701.156	591.2
701.561	598.4
701.987	599
702.393	602.2
702.798	596.2
703.203	593.4
703.63	585.2
704.036	578.4
704.442	591.6
704.847	576.6
705.274	586.8
705.68	589.2
706.086	587.8
706.492	569.4
706.92	577.4
707.326	598.2
707.732	577.2
708.139	579.2
708.545	568.4
708.973	584
709.38	582
709.786	577.4
710.193	597.2
710.6	592
711.028	580.8
711.435	586.8
711.842	583.2
712.249	578
712.656	584.8
713.064	595.4
713.492	574
713.9	586.6
714.307	587.2
714.715	588.6
715.123	591.4
715.53	589.4
715.938	598.6
716.367	586
716.775	587.6
717.184	581
717.592	579
718	594.2
718.408	613
718.816	615.6
719.225	592.8
719.633	589.4
720.042	572.6
720.472	580.4
720.881	611
721.29	592.6
721.699	580.6
722.108	595
722.517	590
722.926	585.6
723.335	599.6
723.744	581.2
724.154	585.4
724.563	588.6
724.973	588.2
725.382	590.8
725.792	586.8
726.202	580.2
726.612	611.6
727.022	590.8
727.432	589.6
779.813	581.8
780.223	624.6
780.634	579.8
781.044	577.6
781.454	581.4
781.865	601.2
782.276	581.8
782.686	596.6
783.097	591
783.508	579.8
783.919	587
784.33	594.2
784.741	601.6
785.152	584
785.563	577.4
785.974	575.8
786.386	597.6
786.776	587.4
787.188	578
787.599	572.6
788.011	589.8
788.423	592
788.835	589.2
789.247	579.6
789.659	589
790.071	586.8
790.483	624
790.874	592.4
791.286	591.8
791.699	578.8
792.111	578.6
792.524	583.2
792.937	577.6
793.349	580.4
793.741	576.8
794.154	579.8
794.567	617.2
794.98	578.2
795.393	573.4
795.785	610.2
796.198	583.4
796.612	590.8
797.026	579.4
797.439	569.2
797.831	585.4
798.245	582
798.659	579.8
799.073	583
799.487	574.6
799.88	588.8
800.294	581.2
800.708	588.2
801.123	591
801.516	608.4
801.93	577.4
802.345	574.6
802.76	592
803.153	592
803.568	595.4
803.983	590.2
804.377	592.2
804.792	569.2
805.207	575.4
805.601	580.2
806.016	622.8
806.432	581.6
806.826	617.4
807.242	595.2
807.658	590.8
808.052	575.6
808.468	580.4
808.884	574.2
809.279	582.2
809.695	598.4
810.111	602.2
810.506	591.6
810.922	605.6
811.339	575.8
811.734	591.6
812.151	582.4
812.546	575.4
812.963	583.6
813.38	596.4
813.776	573.8
814.193	606
814.589	573
815.006	580.8
815.402	572.6
815.82	575.4
816.237	592
816.633	589.6
817.051	576.8
817.448	589.2
817.866	579.8
818.262	597.8
818.68	589.2
819.077	584.6
819.495	590.6
819.892	624
820.311	578.4
820.708	576.8
821.127	585
821.524	594.6
821.943	584.6
822.34	596.6
822.759	590.8
823.157	578
823.576	601.4
823.974	594.2
824.393	610.8
824.791	580.4
825.189	578.4
825.609	578.8
826.007	586
826.427	573.2
826.826	577.4
827.246	592.6
827.644	573.6
828.043	592.4
828.463	577.2
828.862	588
829.261	591.4
829.682	576.2
830.081	590.8
830.502	579
830.901	587.4
831.301	594.6
831.722	572.6
832.121	583.2
832.521	575.4
832.943	574
833.342	586
833.742	584.2
834.164	585.2
834.564	568.6
834.965	588.8
835.386	576
835.787	573.8
836.188	582.4
836.588	582
837.01	580.8
837.411	586
837.812	596.6
838.213	583.8
838.636	576
839.037	637.8
839.438	583.2
839.84	585.6
840.263	589.6
840.664	584.6
841.066	584.8
841.468	577.6
841.891	573
842.293	585.4
842.695	582.4
843.098	587.8
843.5	581.6
843.902	589.8
844.326	586.4
844.729	580.8
845.131	588.8
845.534	585.2
845.937	597.2
846.34	604.8
846.764	576.6
847.167	589.2
847.571	574.4
847.974	584.4
848.377	578.8
848.781	624.8
849.184	596.2
849.588	586.8
849.992	576.4
850.396	592.4
850.821	603.8
851.225	583
851.63	583
852.034	588.8
852.438	581
852.843	607.4
853.247	570
853.652	574.2
854.057	602.8
854.462	582.4
854.867	587.8
855.272	609.6
855.677	582
856.082	577.8
856.487	572.8
856.893	585.8
857.298	582
857.704	573.4
858.11	580.6
858.516	590.2
858.922	576.2
859.328	595.6
859.734	584.6
860.14	593.2
860.525	580.8
860.931	571.8
861.338	576.2
861.745	580.4
862.151	593.6
862.558	584.2
862.965	579.2
863.372	574.8
863.779	576.4
864.186	601.4
864.572	581.6
864.98	597
865.387	611.2
865.795	567.8
866.203	582.8
866.61	573
867.018	581.6
867.405	592
867.813	577
868.221	577.6
868.63	572
869.038	598.8
869.425	623.8
869.834	584.4
870.243	580
870.652	575.6
871.039	573.4
871.448	580.4
871.857	583.8
872.266	580
872.654	585.8
873.064	566.2
873.473	585.6
873.883	581.4
874.271	578
874.681	603.8
875.091	568.2
875.48	588
875.89	602.4
876.3	579.8
876.689	568.2
877.1	584.4
877.51	579.2
877.9	600.4
878.31	580.2
878.721	608.6
879.111	585.4
879.522	576.2
879.933	573
880.323	569.2
880.734	575.6
881.125	581.6
881.536	572.6
881.948	575.6
882.338	579
882.75	591.6
883.141	573.6
883.553	581.6
883.944	607.2
884.356	585.6
884.769	571.6
885.16	583.2
885.573	577
885.964	577.4
886.377	587.4
886.768	578.6
887.181	588.6
887.573	574.6
887.987	597.2
888.378	593.2
888.792	578
889.184	632
889.598	576
889.99	588.8
890.383	571
890.797	570.8
891.19	587.4
891.604	577.6
891.997	579.6
892.411	566.8
892.805	567.8
893.198	576.8
893.613	563.2
894.006	576.2
894.421	568.4
894.815	570.8
895.209	571
895.624	622.6
896.018	599.8
896.412	581.4
896.828	574.8
897.222	577.4
897.617	583.4
898.033	595.6
898.427	584
898.822	579.8
899.239	580.2
899.634	572.4
900.029	595.6
900.424	577
900.841	566.8
901.236	592.6
901.632	589.4
902.027	641
902.445	587
902.841	581.2
903.237	575.4
903.633	598.2
904.05	592.8
904.447	589.8
904.843	591
905.24	586.4
905.636	571.8
906.033	581.6
906.451	586.6
906.848	571.8
907.246	580.2
907.643	583
908.04	588.6
908.438	598
908.835	585.8
909.254	579
909.652	584.6
910.05	569.6
910.448	576.6
910.846	586.4
911.244	578.2
911.643	591.6
912.041	582.2
912.44	604.4
912.839	581.2
913.237	572.4
913.636	580.4
914.035	593.4
914.434	576.2
914.834	595.6
915.233	582.8
915.633	581.6
916.032	568.8
916.432	583.2
916.832	585.2
917.232	581.6
917.632	567
918.032	584.8
918.432	576.2
918.833	586.6
919.233	579.8
919.634	573.2
920.035	591.8
920.436	574.4
920.837	577.2
921.238	568
921.639	578
922.019	585.4
922.42	589.6
922.822	583.8
923.224	581.8
923.625	578.2
924.027	577.6
924.429	601.2
924.81	581.6
925.212	589
925.615	584.8
926.017	575.8
926.42	597
926.801	581.8
927.204	582
927.607	593.6
928.01	596.6
928.413	585.2
928.795	569.6
929.199	584.4
929.602	576
930.006	580.6
930.388	578.6
930.792	590.2
931.196	584.6
931.579	623.6
931.983	570
932.388	623.4
932.771	570.2
933.176	572
933.58	574.4
933.964	584.2
934.369	564.4
934.774	584.4
935.158	577
935.563	572
935.947	574.6
936.353	582
936.759	569.6
937.143	585.6
937.549	580
937.934	582.8
938.34	601.8
938.746	574.6
939.131	576.2
939.538	571.8
939.923	581.6
940.33	573.8
940.716	571.6
941.123	574.2
941.508	588.4
941.916	586.8
942.302	581.6
942.709	569
943.096	572.2
943.503	578.8
943.89	583.4
944.298	569.4
944.685	613.6
945.072	573.2
945.48	596.2
945.867	572.2
946.276	579.8
946.663	591.2
947.051	590.4
947.46	589.4
947.848	577.4
948.257	570.6
948.645	576
949.033	569.6
949.443	566.2
949.831	617.8
950.22	572.6
950.63	578
951.018	596.6
951.407	577.4
951.796	565
952.207	582.4
952.596	584.8
952.985	568.2
953.375	612
953.786	572.8
954.176	571
954.566	586.2
954.956	567.4
955.367	570.4
955.758	599
956.148	568.2
956.539	581.4
956.929	573.4
957.341	570
957.732	573.4
958.123	585.6
958.515	564.4
958.906	571.8
959.297	578
959.689	572.2
960.102	564.8
960.494	570.8
960.886	568
961.278	568.6
961.67	601.4
962.062	610.4
962.455	579
962.847	580
963.24	577.8
963.633	581.4
964.026	569.4
964.419	577.2
964.812	589.6
965.206	567.4
965.599	580.8
965.993	577
966.386	581
966.78	599.4
967.174	579.4
967.569	571.8
967.963	572
968.357	569
968.752	575.4
969.146	571.6
969.541	572.6
969.936	571.6
970.331	575
970.705	583.6
971.1	575.4
971.496	582
971.892	569.8
972.287	575.8
972.683	583
973.079	578.4
973.454	589.2
973.85	582.2
974.247	587.2
974.643	601.4
975.04	576.4
975.415	575.4
975.812	578.6
976.209	581.4
976.607	564.6
976.982	587.6
977.38	596.2
977.778	575
978.175	575.2
978.552	587
978.95	578.8
979.348	590.8
979.725	623.8
980.123	569.6
980.522	574.2
980.899	577.8
981.298	574
981.697	571.4
982.075	571.8
982.474	572.8
982.852	581.2
983.251	587
983.651	572.8
984.029	575.8
984.429	570.2
984.808	575.4
985.208	580
985.609	563.8
985.987	564.4
986.388	574.2
986.768	579.8
987.168	571.4
987.548	572
987.949	594
988.329	586.8
988.731	549.6
989.111	577.8
989.491	567
989.893	569.8
990.273	587.2
990.676	568.8
991.057	566.4
991.459	576.8
991.84	577.6
992.221	563.2
992.624	590.2
993.006	574.8
993.388	578.6
993.791	587.8
994.173	581.8
994.576	609.8
994.959	571.2
995.341	569.8
995.724	583.2
996.128	581.6
996.511	581.2
996.894	582.2
997.298	576.8
997.681	578
998.065	577
998.448	575.6
998.854	590.6
999.237	573.4
999.621	584.4
1000.01	586.4
1000.39	577.6
1000.8	577
1001.18	579
1001.56	587.8
1001.95	587.2
1002.33	580.2
1002.72	582.6
1003.13	576
1003.51	581.4
1003.9	574.2
1004.28	584.8
1004.67	571.6
1005.06	577.2
1005.44	607.6
1005.83	560.2
1006.21	577.6
1006.6	572.2
1006.99	580.4
1007.37	580.4
1007.76	578
1060.12	563.8
1060.51	570.8
1060.89	581.6
1061.28	589
1061.67	585.6
1062.06	579.8
1062.45	574
1062.83	568
1063.22	589
1063.61	615.4
1064	579
1064.39	578
1064.78	572.2
1065.14	597.2
1065.53	573.2
1065.92	585
1066.31	569.6
1066.7	576
1067.09	601.6
1067.46	587
1067.85	574.4
1068.24	585
1068.63	579
1069.02	564.4
1069.39	585.8
1069.78	572.8
1070.17	578
1070.57	563
1070.93	575
1071.33	565.4
1071.72	583
1072.11	575.4
1072.48	569
1072.87	577
1073.26	573
1073.64	579.4
1074.03	565.6
1074.4	569
1074.79	565
1075.19	578.2
1075.56	578.4
1075.95	571.8
1076.34	585.2
1076.72	574.8
1077.11	582.6
1077.48	578.6
1077.88	572.8
1078.25	568.2
1078.64	579.6
1079.02	579.8
1079.41	582.8
1079.78	580.6
1080.18	568.2
1080.55	634.4
1080.95	564
1081.32	570.6
1081.72	575
1082.09	578.4
1082.49	568.4
1082.86	575
1083.24	565.8
1083.63	570.6
1084.01	571.4
1084.38	589.2
1084.78	563.6
1085.16	581.2
1085.55	589.2
1085.93	582.4
1086.31	570.8
1086.7	602.6
1087.08	579.2
1087.46	568.4
1087.83	564.2
1088.23	586.2
1088.61	571
1088.99	578.6
1089.36	573.6
1089.76	568.2
1090.14	567
1090.52	574.4
1090.9	566.8
1091.27	581.2
1091.67	587.4
1092.05	578.4
1092.43	559.8
1092.81	577.8
1093.19	580.2
1093.57	572.6
1093.95	566
1094.35	578
1094.73	578.2
1095.11	565.8
1095.49	566.8
1095.87	580.8
1096.25	590.8
1096.63	585.2
1097.01	580
1097.39	583
1097.77	577.4
1098.15	576.8
1098.53	567.4
1098.91	574
1099.29	574.6
1099.68	593.4
1100.06	583.6
1100.44	569.8
1100.82	578.8
1101.18	580.8
1101.56	565.8
1101.95	566
1102.33	573.2
1102.71	580.2
1103.1	565.6
1103.48	558
1103.86	571
1104.22	577.8
1104.61	572.8
1104.99	571.4
1105.38	561.6
1105.76	572.8
1106.12	581.2
1106.51	613.8
1106.89	586.4
1107.26	581.4
1107.64	582.8
1108.03	562.2
1108.41	572.2
1108.78	574.2
1109.16	575.6
1109.55	586
1109.91	560.2
1110.3	556.4
1110.69	590.8
1111.05	567
1111.44	581.8
1111.8	584
1112.19	574.2
1112.58	574.2
1112.94	570.4
1113.33	573.6
1113.7	578
1114.09	568.8
1114.45	567.4
1114.84	575.8
1115.21	583.6
1115.6	569
1115.96	581.8
1116.35	578.8
1116.72	566.6
1117.11	583.8
1117.48	567.6
1117.85	573.6
1118.24	595.8
1118.6	572.6
1118.99	566.6
1119.36	568.4
1119.73	570.2
1120.12	573.6
1120.49	558.8
1120.86	575.4
1121.25	568.6
1121.62	555.6
1121.99	573.8
1122.38	585
1122.76	576.8
1123.13	563.8
1123.5	577.8
1123.89	578.8
1124.26	565.4
1124.63	584.2
1125	576.8
1125.4	571.4
1125.77	568.6
1126.14	559.6
1126.51	576.6
1126.88	578.4
1127.26	569.2
1127.63	563.4
1128.02	577
1128.4	567.4
1128.77	567.4
1129.14	573.6
1129.52	572.2
1129.89	567.6
1130.26	561.8
1130.64	567.2
1131.01	569.4
