#lambda/nm	C1
208.295	511.6
208.67	466.2
209.045	426.2
209.419	436
209.794	611.6
210.169	596.8
210.544	723.4
210.919	617
211.295	613.2
211.67	622
212.045	609.8
212.421	621.6
212.796	649.8
213.172	616.6
213.547	611
213.923	603.4
214.299	604.8
214.675	627.2
215.051	615.8
215.427	625.2
215.803	632
216.179	612.6
216.555	604.8
216.932	626.8
217.308	617.6
217.684	611.8
218.061	621.4
218.438	618
218.814	611.8
219.191	620.4
219.568	600.8
219.945	614.8
220.322	618.4
220.699	622
221.076	623.4
221.453	621.2
221.83	602.2
222.208	610.6
222.585	614.4
222.962	621.4
223.34	618.8
223.717	617.6
224.095	610.6
224.473	613.2
224.851	607.4
225.229	602
225.607	632.8
225.985	608
226.363	626.4
226.741	619.8
227.119	611.4
227.497	627.2
227.876	607.4
228.254	622.6
228.633	620.8
229.011	623.2
229.39	623.8
229.769	621
230.148	625.2
230.527	642.6
230.905	615.8
231.284	624.8
231.664	615.2
232.043	620.2
232.422	624.6
232.801	614.4
233.181	627.4
233.56	615.6
233.94	612
234.319	605
234.699	616.6
235.079	667
235.458	656.2
235.838	629.6
236.218	604
236.598	602
236.978	610.2
237.358	613.8
237.738	605
238.119	619.8
238.499	606.6
238.88	620.2
239.26	632.4
239.641	603
240.021	614.2
240.402	611.2
240.783	615.4
241.163	615.4
241.544	624.8
241.925	615.4
242.306	642.4
242.687	617.2
243.069	624
243.45	636.8
243.831	606.4
244.212	606.8
244.594	643.4
244.975	622.4
245.357	627.2
245.739	619
246.12	619.4
246.502	625
246.884	613.2
247.266	615.8
247.648	619
248.03	637
248.412	612.2
248.794	621.2
249.176	609.6
249.559	621.4
249.941	603.6
250.323	609.4
250.706	610.8
251.089	612.2
251.471	620.2
251.854	613.6
252.237	614.2
252.62	623
253.002	616
253.385	616.2
253.769	631.6
254.152	613.8
254.535	619.6
254.918	610
255.301	610
255.685	611.2
256.068	601.4
256.452	641.4
256.835	625.6
257.219	623.2
257.603	626.6
257.986	611.6
258.37	625.6
258.754	604
259.138	622.8
259.522	629.8
259.906	607.6
260.29	624.6
260.675	619.2
261.059	619
261.443	605.6
261.828	619.8
262.212	612.2
262.597	602.8
262.981	606
263.366	629.2
263.751	609.6
264.136	605.6
264.521	617.2
264.906	603.8
265.291	632
265.676	608.2
266.061	618.4
266.446	635.8
266.831	612
267.217	634.8
267.602	624.2
267.987	616.6
268.373	614.6
268.759	620.6
269.144	626.6
269.53	613.8
269.916	607
270.302	613
270.688	617
271.074	622.4
271.46	626.8
271.846	651.2
272.232	617
272.618	607.4
273.004	622.8
273.391	625.2
273.777	624.6
274.164	623.6
274.55	635.6
274.937	617.4
275.324	607
275.71	622.4
276.097	619.4
276.484	608.4
276.871	619.4
277.258	621.6
277.645	605.8
278.032	611.6
278.419	618.6
278.807	617
279.194	603.6
279.581	607.8
279.969	621.2
280.356	626.4
280.744	613.8
281.131	638.4
281.519	623.8
281.907	612
282.295	612.2
282.682	631.6
283.07	623
283.458	632.6
283.846	632
284.235	627.8
284.623	624.6
285.011	609
285.399	625.4
285.788	610.4
286.176	613.4
286.565	620.4
286.953	611.4
287.342	615.4
287.731	613.8
288.119	599
288.508	619
288.897	612.2
289.286	606.6
289.675	621
290.064	626.4
290.453	615
290.821	619.6
291.21	632
291.599	613.6
291.989	615.8
292.378	618.8
292.768	636.8
293.157	619
293.547	628
293.936	626.2
294.326	613
294.716	625
295.106	616.2
295.496	633.6
295.886	623
296.276	611.8
296.666	616
297.056	609.6
297.446	606.8
297.836	633.2
298.227	612.2
298.617	621.8
299.008	626.4
299.398	616.2
299.789	611.4
300.179	618.6
300.57	622.2
300.961	619.8
301.352	613.2
301.742	627.8
302.133	623.8
302.524	614.4
302.915	621
303.307	622
303.698	625.6
304.089	622.6
304.48	617.4
304.872	626.4
305.263	615.4
305.655	618
306.046	614.6
306.438	627
306.829	617
307.221	630.8
307.613	620
308.005	623.4
308.397	624
308.789	638.4
309.181	640
309.573	630.6
309.965	627
310.357	615.4
310.749	634.4
311.142	593.4
311.534	609.4
311.926	619
312.319	610
312.711	609.6
313.104	622.6
313.497	613.8
313.889	663
314.282	632
314.675	639.4
315.068	613.6
315.461	618
315.854	642
316.247	625.8
316.64	619
317.033	615.4
317.405	631
317.798	617
318.192	619.2
318.585	608.8
318.979	626.8
319.372	609.2
319.766	614.2
320.16	626.8
320.553	627.4
320.947	644
321.341	618.8
321.735	617
322.129	607.4
322.523	645.2
322.917	613
323.311	628
323.705	616.6
324.099	620
324.494	629.4
324.888	625.2
325.282	618.4
325.677	632.8
326.071	619.4
326.466	633.2
326.861	616
327.255	630.4
327.65	624.4
328.045	627.8
328.44	623.2
328.835	624.6
329.23	614.2
329.625	641.4
330.02	610
330.415	642.4
330.81	618.2
331.206	623.8
331.601	614
331.996	629
332.37	642.4
332.766	611.6
333.161	639
333.557	621.8
333.953	624
334.348	931.6
334.744	624.8
335.14	605.2
335.536	619.4
335.932	631.2
336.328	626.4
336.724	621.6
337.12	620
337.516	619.4
337.913	617.8
338.309	633.2
338.705	617.2
339.102	625.8
339.498	620.8
339.895	633
340.291	612.8
340.688	631.2
341.085	611
341.481	617.6
341.878	611.6
342.275	637
342.672	601.8
343.069	609.2
343.466	597.6
343.842	632
344.239	607.2
344.636	619.2
345.033	611.4
345.431	609
345.828	619.6
346.225	614
346.623	652.2
347.02	616.4
347.418	624.2
347.816	627.6
348.213	603.2
348.611	621.8
349.009	620.2
349.407	623.2
349.805	606.2
350.203	597.8
350.601	632
350.999	609.2
351.397	679.8
351.795	616.8
352.193	627.4
352.57	625.4
352.969	626
353.367	607.4
353.766	609.6
354.164	614.2
354.563	625.8
354.961	615.2
355.36	612.6
355.759	618
356.158	602
356.557	619.4
356.956	607
357.355	599
357.754	619.8
358.153	613.2
358.552	647
358.951	622.8
359.35	626
359.75	593.8
360.149	595.2
360.527	599.2
360.926	593.6
361.326	609.6
361.726	613.8
362.125	608.2
362.525	616
362.925	611
363.325	608.4
363.724	612.2
364.124	601.2
364.524	610.6
364.924	615.6
365.324	619
365.725	599.2
366.125	617.8
366.525	618.6
366.904	602.2
367.304	595
367.705	626
368.105	624
368.506	612.8
368.906	610.8
369.307	620.2
369.708	615.2
370.108	611.2
370.509	622.8
370.91	605.2
371.311	612
371.712	611.8
372.113	612.4
372.514	602
372.894	618.2
373.295	602.6
373.696	626.2
374.097	617.4
374.499	641
374.9	611.8
375.301	598.8
375.703	614
376.105	604.8
376.506	608.6
376.908	615
377.309	612.4
377.711	613.4
378.113	606.4
378.493	612.2
378.895	603.2
379.297	618.4
379.699	594.6
380.102	619
380.504	620.2
380.906	609.2
381.308	635.2
381.71	613.2
382.113	619.8
382.515	610.6
382.918	610.4
383.299	617.2
383.701	622.6
384.104	612.8
384.507	583.8
384.909	617
385.312	602.8
385.715	605.8
386.118	612.8
386.521	597
386.924	623.4
387.327	603.2
387.709	590.6
388.112	595.8
388.515	604.2
388.918	604.6
389.322	613.4
389.725	597.6
390.129	632.8
390.532	610.8
390.936	606.2
391.339	606.2
391.743	611.6
392.125	592.6
392.529	620.2
392.933	627.8
393.337	608.2
393.74	606.2
394.144	617.4
394.548	609
394.953	602.4
395.357	614.8
395.761	615
396.144	602.4
396.548	610.6
396.952	614.8
397.357	613.4
397.761	604.2
398.166	609.4
398.57	606
398.975	607.4
399.379	612.2
399.763	653.2
400.168	610.8
400.572	614.4
400.977	608.2
401.382	629.4
401.787	617.6
402.192	634
402.597	618.8
403.002	595
403.386	622.8
403.791	620.4
404.197	609.2
404.602	607.8
405.007	605.6
405.413	606.4
405.818	612.4
406.224	598.6
406.608	597.2
407.014	596.6
407.42	624.6
407.825	601.6
408.231	613.2
408.637	603.4
409.043	624
409.449	598.8
409.834	608.6
410.24	600
410.646	616.2
411.052	618.8
411.458	610.6
411.865	613.6
412.271	609.8
412.677	613
413.062	613.4
413.469	599.8
413.875	638.8
414.282	624
414.689	621
415.095	609
415.502	609.8
415.888	609.4
416.294	598
416.701	654.8
417.108	602.8
417.515	618.4
417.923	607.2
418.33	634.4
418.715	615
419.123	608.6
419.53	601.6
419.937	613.2
420.345	621.6
420.752	611
421.16	623.2
421.546	607
421.953	623.2
422.361	605.4
422.769	607.8
423.177	601
423.585	631.4
423.992	623.8
424.379	620.2
424.787	621.2
425.195	631.4
425.603	614.8
426.011	621
426.419	625.6
426.806	619
427.214	622
427.623	624.4
428.031	628.6
428.44	622
428.848	629.8
429.235	628.2
429.644	615
430.053	610.6
430.461	628
430.87	647
431.279	623.2
431.666	614.6
432.075	608.6
432.484	617
432.893	614.2
433.302	625.8
433.711	656.6
434.099	619.4
434.508	608.6
434.918	606.2
435.327	613.4
435.737	612.2
436.125	610.8
436.534	609.2
436.944	607.8
437.353	610.6
437.763	635
438.173	596.6
438.561	624.8
438.971	594
439.381	621.2
439.791	615
440.201	589.8
440.589	616
440.999	614.2
441.409	615.8
441.819	597.2
442.23	620
442.619	623.8
443.029	605.4
443.439	609.4
443.85	621
444.26	615.8
444.649	618.2
445.06	611.2
445.471	603.6
445.881	602.2
446.292	625.8
446.682	620.2
447.092	594.6
447.503	658.8
447.914	603.4
448.325	612.4
448.715	613
449.126	602.8
449.537	606.2
449.948	613.6
450.338	611.2
450.75	623.6
451.161	610
451.572	612.8
451.984	602
452.374	586.2
452.786	602.2
453.197	603.6
453.609	612.4
453.999	588.6
454.411	600.4
454.823	620.4
455.235	606.4
455.647	601
456.037	608.2
456.449	587.2
456.862	607.8
457.274	608.6
457.665	597.4
458.077	600.6
458.489	640.8
458.902	605.6
459.293	615
459.705	599.6
460.118	595.6
460.53	606
460.921	605.8
461.334	614
461.747	613.2
462.16	622.6
462.551	619.6
462.964	614.6
463.377	586.6
463.79	604.6
464.182	614.4
464.595	595
465.008	607.4
465.421	612
465.813	603.4
466.226	607.2
466.64	598.8
467.053	651.8
467.445	610.2
467.859	615
468.272	609.2
468.686	614
469.078	598
469.492	596
469.906	600.8
470.298	610.8
470.712	589.2
471.126	652.6
471.54	598.4
471.933	597.2
472.347	599
472.761	598.4
473.175	600.2
473.568	602.4
473.982	596.4
474.397	599.4
474.79	601.4
475.204	608.8
475.619	605.4
476.033	608
476.426	597.6
476.841	588
477.256	629.8
477.649	599.6
478.064	594
478.479	599.2
478.872	586.2
479.287	579
479.702	595
480.118	603.4
480.511	607.6
480.927	600.4
481.342	588.2
481.736	606.6
482.151	599.6
482.566	622.8
482.96	598.6
483.376	611.2
483.792	595.6
484.186	607
484.602	597.4
485.017	605.6
485.412	601.6
485.827	609.2
486.243	597.6
486.638	619.4
487.054	612.6
487.47	614.6
487.865	608.2
488.281	609.4
488.697	600.8
489.092	604.6
489.508	591
489.925	615.6
490.32	588.4
490.736	609.8
491.153	603.2
491.548	610.2
491.964	619.4
492.381	592.8
492.776	604.8
493.193	605.6
493.61	608
494.006	607.8
494.422	600.6
494.84	595.4
495.235	603.2
495.652	600.4
496.069	595
496.465	588.2
496.883	601.4
497.3	624.2
497.696	610
498.113	611
498.509	585.4
498.927	584.4
499.344	595.6
499.741	599.6
500.158	614.8
500.576	616.6
500.973	595.8
501.39	594.8
501.787	591
502.205	603
502.623	594
503.02	589
503.438	594
503.856	593.4
504.253	611.8
504.671	593.4
505.068	593
505.486	588.8
505.905	618.2
506.302	596.2
506.72	599.2
507.118	582.4
507.536	592.6
507.955	600.6
508.352	594.4
508.771	612.2
509.169	596.6
509.587	584.2
510.006	593.4
510.404	587
510.823	592.8
511.221	597
511.64	590.2
512.038	608
512.457	606.6
512.877	599
513.275	584.6
513.694	594
514.092	591.2
514.512	604.8
514.91	604.4
515.33	595.8
515.749	598.2
516.148	600.4
516.568	606
516.966	608.4
517.386	589.4
517.785	600.6
518.205	597.4
518.603	597
519.024	587.8
519.444	605.4
519.843	599.4
520.263	614
520.662	601.4
521.082	593.4
521.481	605
521.902	596.4
522.301	590.2
522.722	597
523.121	601.4
523.542	602.4
523.963	602.2
524.362	598
524.783	604.4
525.183	596.4
525.604	602.8
526.003	599.4
526.425	600.6
526.824	616.6
527.246	613.6
527.646	604.8
528.067	587.6
528.467	600.4
528.888	599
529.289	600.4
529.71	601.6
530.11	594.6
530.532	596.4
530.932	585.8
531.354	587.6
531.755	631.2
532.176	610.6
532.577	603
532.999	598.6
533.4	602.8
533.822	606.2
534.223	609
534.645	594.2
535.046	596.4
535.468	604.8
535.869	607.2
536.292	593.4
536.693	639.2
537.115	599
537.516	590
537.939	596.2
538.34	609.4
538.742	609.4
539.165	600
539.566	590.6
539.989	588.8
540.391	588
540.814	592.2
541.216	597
541.639	592.8
542.041	593.8
542.464	589.4
542.866	597
543.268	586
543.691	609.8
544.093	609.2
544.517	607
544.919	594.8
545.343	619.6
545.745	586.6
546.147	605.2
546.571	594
546.974	588.6
547.398	594.6
547.8	605
548.224	588.2
548.627	595
549.03	596.4
549.454	589.6
549.857	584.2
550.281	583.6
550.684	591.8
551.087	604.6
551.512	587.2
551.915	602.6
552.34	599.6
552.743	586.6
553.146	596.4
553.571	595.6
553.975	608.4
554.399	589.8
554.803	638.8
555.207	595.4
555.632	583.2
556.036	595.8
556.461	588.8
556.865	593.2
557.268	595.6
557.694	587.2
558.098	605
558.502	599.6
558.927	591.6
559.332	600
559.736	599
560.162	606.4
560.566	596.6
560.992	601.8
561.396	590.2
561.801	588.6
562.227	597
562.631	589.4
563.036	593
563.462	605.2
563.867	601.4
564.272	579.2
564.698	599.6
565.103	584.4
565.508	617.4
565.935	601.2
566.34	594.8
566.745	607.2
567.172	591.2
567.577	617.2
567.982	604.4
568.409	595.8
568.815	591.4
569.22	600.2
569.626	596.2
570.053	587.6
570.459	596
570.865	599.8
571.292	600.4
571.698	599.8
572.104	579.6
572.531	593.8
572.937	605.4
573.343	598.6
573.75	587.2
574.177	599.4
574.583	599.4
574.99	596.6
575.396	601.8
575.824	589
576.231	598
576.637	594.8
577.065	615.4
577.472	589
577.879	597.8
578.286	611
578.714	586.6
579.121	592.2
579.528	601.8
579.935	599.2
580.364	587.6
580.771	579.8
581.178	583.2
581.585	600.6
582.014	599.8
582.421	589.8
582.829	591.6
583.236	601.8
583.644	590.6
584.073	590
584.481	596.4
584.889	591.8
585.296	599
585.726	593.2
586.134	585.4
586.542	589
586.95	614.8
587.358	584.4
587.787	596.2
588.196	601.4
588.604	592
589.012	587.6
589.421	581.6
589.851	592.8
590.259	600
590.668	588.8
591.076	622.8
591.485	585
591.894	595.2
592.324	609.4
592.733	605
593.142	589.6
593.551	596.6
593.96	629.4
594.369	583.8
594.8	577.2
595.209	592.2
595.618	580.2
596.028	591.8
596.437	588.2
596.847	593.6
597.256	586.6
597.687	605.8
598.097	591.8
598.507	585.8
598.917	593.8
599.327	590.6
599.736	587.8
600.146	594.4
600.556	594
600.988	609.2
601.398	587
601.808	592.6
602.219	581.2
602.629	595.4
603.039	594.4
603.45	606.4
603.86	585.2
604.271	605.6
604.703	591.6
605.114	594.4
605.525	590.8
605.935	595.6
606.346	614.6
606.757	585.4
607.168	577.8
607.579	592
607.99	600.8
608.402	591.2
608.813	598.2
609.224	588.2
609.636	584.4
610.047	593.4
610.48	594.8
610.892	598.8
611.303	604.2
611.715	585.2
612.127	586.2
612.539	587.2
612.95	597.6
613.362	581.8
613.774	583.4
614.186	587
614.599	592.8
615.011	602.4
615.423	596.4
615.835	587.2
616.248	579
616.66	600.8
617.073	584.4
617.485	592.4
617.898	604.4
618.311	595.4
618.723	591
619.136	627.6
619.549	607.4
619.962	615.4
620.375	595.8
620.788	601.8
621.201	591.8
621.614	599.4
622.028	600.2
622.441	599
622.854	622.2
623.268	588.2
623.681	602.2
624.095	603.4
624.509	602
624.922	594.4
625.336	580.8
625.728	586.6
626.142	606
626.556	612.6
626.97	596.4
627.384	586.8
627.799	594.8
628.213	606.8
628.627	590.6
629.041	594
629.456	591.8
629.87	592.6
630.285	608.6
630.699	601
631.093	583.6
631.507	603.2
631.922	596
632.337	599
632.752	587.6
633.167	594.6
633.582	590.4
633.997	594
634.412	587
634.806	594.2
635.221	584.8
635.637	601.4
636.052	579.8
636.468	588.6
636.883	610.6
637.299	596.4
637.715	581.4
638.109	596.2
638.525	570.8
638.941	597.8
639.357	600.2
639.773	603.8
640.189	586.4
640.584	588.8
641	593.6
641.416	584.4
641.832	590.2
642.249	592.2
642.665	588.4
643.06	598.6
643.477	599.6
643.894	585.8
644.31	593.4
644.727	593.8
645.123	596.6
645.54	579.4
645.957	589.4
646.374	603.2
646.77	584.8
647.187	620.6
647.604	589
648.021	576.8
648.439	586.4
648.835	585.8
649.252	582.6
649.67	586.4
650.088	586.4
650.484	590.8
650.902	595.8
651.32	598.8
651.738	585.6
652.134	591.4
652.552	605.6
652.971	598.4
653.389	589.6
653.786	608.8
654.204	603.2
654.622	586
655.019	591
655.438	587.6
655.857	595.8
656.275	593.8
656.673	585.2
657.091	599.6
657.51	579.2
657.908	598
658.327	609.4
658.746	584
659.144	588.4
659.563	597.8
659.982	591.8
660.38	587.2
660.8	595.4
661.219	596.2
661.617	587.4
662.037	591
662.457	601.2
662.855	583.8
663.275	627.2
663.695	591.6
664.094	590.4
664.514	594.6
664.934	586.2
665.333	598.8
665.753	580.2
666.152	579.4
666.572	585
666.993	598.8
667.392	589.4
667.812	586.8
668.212	596.4
668.632	594.6
669.053	595.4
669.453	592.6
669.874	597.4
670.273	586.2
670.694	582.8
671.116	601.6
671.515	596.6
671.937	586.6
672.337	582.8
672.758	584.8
673.158	597
673.58	581
673.98	586.6
674.402	605.4
674.824	591.6
675.224	581.2
675.646	580.4
676.047	582
676.469	588.2
676.869	589.2
677.292	596.2
677.693	584.4
678.115	585.2
678.516	592.4
678.939	590.2
679.34	597.4
679.762	601.6
680.164	594.8
680.586	588.6
680.988	592.4
681.411	612.6
681.812	585.2
682.236	582.4
682.637	581.6
683.061	578.2
683.462	593.6
683.864	593.2
684.288	589.6
684.69	586.2
685.114	600.6
685.516	596.4
685.94	576.4
686.342	590.6
686.766	584.8
687.168	583.8
687.571	605.6
687.995	595.4
688.398	574.8
688.822	592.2
689.225	602.4
689.628	612.8
690.052	590.2
690.456	589.8
690.88	591.8
691.284	584.2
691.687	596.4
692.112	582.4
692.515	584.6
692.919	586.4
693.344	595.6
693.747	579.2
694.173	580.6
694.577	605.2
694.98	588
695.406	580.2
695.81	594.6
696.214	587.4
696.64	591.6
697.044	583.6
697.448	592
697.874	580.2
698.279	586.4
698.684	579
699.11	578.8
699.514	578.2
699.919	576.2
700.324	576.2
700.75	577.6
701.156	585.8
701.561	594
701.987	585.6
702.393	594
702.798	594
703.203	588.8
703.63	590
704.036	580.8
704.442	588.2
704.847	570.2
705.274	581.4
705.68	597.2
706.086	591.8
706.492	581
706.92	587.4
707.326	600
707.732	580.8
708.139	576.6
708.545	579
708.973	589.4
709.38	584.2
709.786	581.6
710.193	612.2
710.6	589.6
711.028	580.6
711.435	595.4
711.842	587.6
712.249	577.8
712.656	586.6
713.064	598.8
713.492	581.8
713.9	585.6
714.307	592.6
714.715	584.2
715.123	598.4
715.53	591.8
715.938	600.6
716.367	583.4
716.775	586.6
717.184	568.8
717.592	588.2
718	603.6
718.408	629.6
718.816	636.4
719.225	591
719.633	592
720.042	582.8
720.472	594.8
720.881	608.6
721.29	590.2
721.699	578.4
722.108	594.2
722.517	582.6
722.926	583.6
723.335	591.6
723.744	600
724.154	590.8
724.563	595.4
724.973	594.6
725.382	596
725.792	583.6
726.202	582.2
726.612	606.8
727.022	590.2
727.432	578.8
779.813	586.8
780.223	627.8
780.634	583.2
781.044	584.8
781.454	589
781.865	593.6
782.276	578.8
782.686	594.8
783.097	589.6
783.508	584.8
783.919	581.8
784.33	601.4
784.741	598.2
785.152	580.6
785.563	574.6
785.974	582.4
786.386	600.8
786.776	578.2
787.188	578.8
787.599	572.6
788.011	590.2
788.423	589.8
788.835	581.4
789.247	577.2
789.659	574.4
790.071	580.6
790.483	627.6
790.874	583
791.286	598
791.699	587.8
792.111	589.6
792.524	590
792.937	584.4
793.349	567
793.741	582.8
794.154	586.2
794.567	598.4
794.98	580
795.393	574
795.785	587
796.198	577.2
796.612	582.2
797.026	573.4
797.439	564
797.831	572.6
798.245	564.8
798.659	574.4
799.073	572.6
799.487	577
799.88	582.4
800.294	588.6
800.708	591
801.123	584.8
801.516	604.2
801.93	572.6
802.345	574.6
802.76	580.6
803.153	603
803.568	593.2
803.983	593.2
804.377	590.2
804.792	574.8
805.207	572.8
805.601	586.4
806.016	625.2
806.432	582
806.826	621.2
807.242	600.2
807.658	589.2
808.052	578.8
808.468	582.4
808.884	580.8
809.279	582
809.695	594.2
810.111	603.6
810.506	591.2
810.922	599.4
811.339	578.2
811.734	596
812.151	584.6
812.546	581
812.963	575.2
813.38	582.2
813.776	585.8
814.193	599.4
814.589	572.8
815.006	575.6
815.402	584
815.82	580.4
816.237	588.4
816.633	591.6
817.051	581
817.448	587.6
817.866	579.2
818.262	600.8
818.68	582
819.077	582.8
819.495	584.8
819.892	635.8
820.311	576.6
820.708	590.4
821.127	578.2
821.524	587.8
821.943	596.4
822.34	597.2
822.759	594.2
823.157	583.4
823.576	596.6
823.974	588.6
824.393	634
824.791	582
825.189	583.2
825.609	586
826.007	586.8
826.427	569.6
826.826	586.8
827.246	587.6
827.644	570
828.043	601.6
828.463	585
828.862	600
829.261	588.2
829.682	567.4
830.081	591.8
830.502	577.2
830.901	586.6
831.301	595.4
831.722	573.4
832.121	586.2
832.521	578.2
832.943	587
833.342	586.2
833.742	583.6
834.164	581.8
834.564	576
834.965	582.8
835.386	574.8
835.787	582.6
836.188	580.4
836.588	586.4
837.01	582.2
837.411	586
837.812	594.4
838.213	581.2
838.636	581.6
839.037	653.2
839.438	580.4
839.84	590.4
840.263	590.8
840.664	591.6
841.066	581.4
841.468	582.6
841.891	580.6
842.293	594
842.695	581
843.098	595.6
843.5	581.4
843.902	588.2
844.326	591.2
844.729	593.4
845.131	589
845.534	581.2
845.937	594
846.34	597.2
846.764	583.4
847.167	580.8
847.571	571.2
847.974	571.2
848.377	579.8
848.781	627.6
849.184	588.6
849.588	584.2
849.992	579.4
850.396	582.2
850.821	600.8
851.225	581.4
851.63	578.4
852.034	596.8
852.438	581.4
852.843	657.6
853.247	571.8
853.652	577
854.057	600.2
854.462	587.6
854.867	584.4
855.272	610.8
855.677	589.2
856.082	575.4
856.487	576
856.893	594.2
857.298	579.2
857.704	579
858.11	581
858.516	591.4
858.922	589.2
859.328	587.8
859.734	582.8
860.14	587.6
860.525	577.8
860.931	569.4
861.338	587.4
861.745	586.4
862.151	598.8
862.558	587.8
862.965	569.8
863.372	572.2
863.779	578.2
864.186	603.8
864.572	581
864.98	602.4
865.387	627.8
865.795	573.4
866.203	582
866.61	577
867.018	594.4
867.405	592.2
867.813	577.2
868.221	586.4
868.63	567.6
869.038	589.2
869.425	625
869.834	582.6
870.243	569.4
870.652	574.6
871.039	588.8
871.448	575.6
871.857	590.6
872.266	586.6
872.654	584.6
873.064	576.6
873.473	597.2
873.883	577.4
874.271	579.6
874.681	590.8
875.091	576.2
875.48	595.8
875.89	593.4
876.3	580.2
876.689	563.8
877.1	579.2
877.51	578.8
877.9	600
878.31	582
878.721	613.6
879.111	585.4
879.522	573.2
879.933	570.2
880.323	569.8
880.734	579.2
881.125	577.4
881.536	581.2
881.948	572.4
882.338	580.6
882.75	589.8
883.141	581.2
883.553	587
883.944	599.4
884.356	586.4
884.769	579.4
885.16	584.6
885.573	578.2
885.964	576.6
886.377	590
886.768	574.6
887.181	580.6
887.573	574.8
887.987	586.4
888.378	584
888.792	578.2
889.184	623.4
889.598	575.8
889.99	583.8
890.383	578.2
890.797	566.6
891.19	583.4
891.604	575.8
891.997	577.8
892.411	560
892.805	577
893.198	572
893.613	565.2
894.006	579.8
894.421	576
894.815	580.4
895.209	570.6
895.624	612.8
896.018	592.4
896.412	573.6
896.828	585
897.222	580.2
897.617	577.2
898.033	606.8
898.427	585.8
898.822	581.6
899.239	571.2
899.634	574.8
900.029	593.2
900.424	569.8
900.841	567.8
901.236	595.6
901.632	588.4
902.027	643.4
902.445	585.4
902.841	578.4
903.237	583.6
903.633	591.4
904.05	596.2
904.447	582.4
904.843	587.2
905.24	583.2
905.636	571.2
906.033	569.4
906.451	586.8
906.848	578.4
907.246	580.2
907.643	578.8
908.04	581
908.438	594.6
908.835	594.4
909.254	572.2
909.652	583.6
910.05	573.2
910.448	576.2
910.846	580.8
911.244	576.6
911.643	580.2
912.041	586.2
912.44	586.6
912.839	570.4
913.237	579.4
913.636	574.2
914.035	587.2
914.434	576
914.834	600
915.233	588.8
915.633	577.2
916.032	566.4
916.432	572.2
916.832	588
917.232	589.4
917.632	567.8
918.032	589.4
918.432	571.8
918.833	584.8
919.233	583.6
919.634	565.4
920.035	590
920.436	571.4
920.837	582.2
921.238	572
921.639	580.6
922.019	576.6
922.42	578.2
922.822	585.6
923.224	578.8
923.625	580.6
924.027	579.6
924.429	597
924.81	591.2
925.212	587.8
925.615	583
926.017	575.4
926.42	586.2
926.801	584.2
927.204	579.2
927.607	594.6
928.01	597.6
928.413	579.2
928.795	569.2
929.199	579.8
929.602	577.6
930.006	575.2
930.388	573.2
930.792	584.4
931.196	580.4
931.579	611.2
931.983	573.6
932.388	615
932.771	583.6
933.176	575
933.58	584.2
933.964	586
934.369	577.4
934.774	572.2
935.158	582.8
935.563	584.6
935.947	582
936.353	591.2
936.759	584
937.143	582.8
937.549	582.2
937.934	593
938.34	606
938.746	571.2
939.131	577.8
939.538	572.8
939.923	590
940.33	577
940.716	576.4
941.123	583.6
941.508	586.4
941.916	581.6
942.302	571
942.709	568
943.096	572.4
943.503	590.6
943.89	570.2
944.298	570
944.685	606.8
945.072	578
945.48	596.4
945.867	579.2
946.276	566
946.663	597.4
947.051	595.2
947.46	589.2
947.848	577.8
948.257	576.4
948.645	591
949.033	566
949.443	578.4
949.831	612.2
950.22	564
950.63	585.4
951.018	606.2
951.407	574.6
951.796	573.2
952.207	581.6
952.596	593.6
952.985	575.6
953.375	615.6
953.786	574
954.176	562.4
954.566	587.6
954.956	574.2
955.367	572.2
955.758	601.2
956.148	567.4
956.539	584.8
956.929	566.8
957.341	573.8
957.732	578.8
958.123	584.2
958.515	572.8
958.906	582.8
959.297	576.8
959.689	575.6
960.102	576
960.494	584.2
960.886	575.4
961.278	580.6
961.67	602.4
962.062	620.6
962.455	573.2
962.847	569.4
963.24	576.8
963.633	578.2
964.026	570
964.419	581
964.812	587.8
965.206	573
965.599	581.4
965.993	579
966.386	575.4
966.78	591.6
967.174	593.8
967.569	579.6
967.963	583.6
968.357	567
968.752	571.2
969.146	576
969.541	566.6
969.936	576.8
970.331	573.8
970.705	573
971.1	579
971.496	588.4
971.892	565.2
972.287	579
972.683	573
973.079	576.6
973.454	594.8
973.85	577.2
974.247	580.8
974.643	600.4
975.04	574
975.415	570.4
975.812	570.8
976.209	576.2
976.607	570.6
976.982	592.2
977.38	596
977.778	576.2
978.175	576.2
978.552	572.6
978.95	581.6
979.348	585.4
979.725	626.4
980.123	574.4
980.522	572.4
980.899	572.6
981.298	568.8
981.697	575.6
982.075	569.6
982.474	567.6
982.852	581
983.251	577.2
983.651	572.6
984.029	577.4
984.429	578.4
984.808	572.2
985.208	564
985.609	559
985.987	559.6
986.388	568.2
986.768	576.8
987.168	573.8
987.548	583.4
987.949	582
988.329	580.8
988.731	571.2
989.111	573
989.491	570.8
989.893	573.2
990.273	587.6
990.676	573.2
991.057	567
991.459	580.4
991.84	577.8
992.221	565.8
992.624	599.6
993.006	582.4
993.388	581.6
993.791	587.2
994.173	580.2
994.576	612.2
994.959	576
995.341	570
995.724	574.6
996.128	579.4
996.511	574.6
996.894	577
997.298	578.6
997.681	583.8
998.065	570.8
998.448	572.6
998.854	590.8
999.237	570.8
999.621	586.4
1000.01	591.2
1000.39	580
1000.8	567.6
1001.18	584.6
1001.56	578.8
1001.95	580
1002.33	586.8
1002.72	578.8
1003.13	578.2
1003.51	576.2
1003.9	576.8
1004.28	593.8
1004.67	570.4
1005.06	575.8
1005.44	608.6
1005.83	565.4
1006.21	576.6
1006.6	569.2
1006.99	590.4
1007.37	582.6
1007.76	584.2
1060.12	574.6
1060.51	579.2
1060.89	580.8
1061.28	583.4
1061.67	590
1062.06	584.4
1062.45	580.8
1062.83	563.4
1063.22	580.2
1063.61	621
1064	579.8
1064.39	575.4
1064.78	577.4
1065.14	587.2
1065.53	576.4
1065.92	578.8
1066.31	570.2
1066.7	584.4
1067.09	591.6
1067.46	583
1067.85	577.6
1068.24	577.6
1068.63	579.2
1069.02	567
1069.39	581.4
1069.78	569.6
1070.17	575
1070.57	570.6
1070.93	581.6
1071.33	568.8
1071.72	576.6
1072.11	573.8
1072.48	571.4
1072.87	579.6
1073.26	580.2
1073.64	575.8
1074.03	566.2
1074.4	574
1074.79	572.8
1075.19	577.4
1075.56	580
1075.95	573.6
1076.34	577.8
1076.72	571.4
1077.11	579.4
1077.48	587.6
1077.88	574.6
1078.25	569
1078.64	590.8
1079.02	589
1079.41	592.2
1079.78	577.4
1080.18	565.6
1080.55	640.6
1080.95	568
1081.32	569.4
1081.72	574.8
1082.09	577.6
1082.49	565.2
1082.86	570.2
1083.24	562
1083.63	564.8
1084.01	570.2
1084.38	574.8
1084.78	561.6
1085.16	570
1085.55	589.2
1085.93	584.6
1086.31	571
1086.7	602
1087.08	579
1087.46	567.6
1087.83	568.2
1088.23	584.4
1088.61	574.6
1088.99	577
1089.36	573.2
1089.76	562
1090.14	570.8
1090.52	575.4
1090.9	571
1091.27	595.2
1091.67	598
1092.05	578.6
1092.43	574.8
1092.81	580.6
1093.19	579.8
1093.57	571.2
1093.95	566.6
1094.35	587
1094.73	588.6
1095.11	570.2
1095.49	564.8
1095.87	573.6
1096.25	585.8
1096.63	585
1097.01	576.4
1097.39	585.2
1097.77	575.8
1098.15	577
1098.53	570.4
1098.91	568.2
1099.29	570.4
1099.68	591
1100.06	578
1100.44	583.8
1100.82	585.2
1101.18	577.4
1101.56	570.8
1101.95	568.6
1102.33	570.8
1102.71	573.2
1103.1	575.4
1103.48	559
1103.86	563.8
1104.22	580.2
1104.61	567.4
1104.99	571.4
1105.38	564
1105.76	584.8
1106.12	579.6
1106.51	610.2
1106.89	583.6
1107.26	571
1107.64	583.2
1108.03	564.4
1108.41	575.6
1108.78	581.6
1109.16	575.8
1109.55	582
1109.91	563.8
1110.3	561.4
1110.69	580.4
1111.05	575.6
1111.44	570.8
1111.8	575
1112.19	582.6
1112.58	581.4
1112.94	571.2
1113.33	569.8
1113.7	572
1114.09	569.6
1114.45	564.8
1114.84	572.8
1115.21	585.8
1115.6	572.2
1115.96	575.4
1116.35	579.4
1116.72	573.6
1117.11	588.6
1117.48	574.6
1117.85	578.2
1118.24	590.8
1118.6	574.2
1118.99	572.8
1119.36	578.8
1119.73	570.8
1120.12	572.4
1120.49	559.2
1120.86	581.8
1121.25	579.8
1121.62	561
1121.99	566.4
1122.38	585.4
1122.76	579
1123.13	571.8
1123.5	569.2
1123.89	572.6
1124.26	565.2
1124.63	569.6
1125	561.8
1125.4	561.2
1125.77	555.2
1126.14	564
1126.51	568.4
1126.88	574.2
1127.26	568.2
1127.63	566.6
1128.02	562.6
1128.4	569.6
1128.77	572.8
1129.14	562.2
1129.52	571
1129.89	575.8
1130.26	566.4
1130.64	573.2
1131.01	570
