#lambda/nm	C1
208.295	562.6
208.67	498.6
209.045	455.8
209.419	457.2
209.794	591.2
210.169	576.8
210.544	669
210.919	600
211.295	580.4
211.67	593.4
212.045	588.4
212.421	582.2
212.796	618.8
213.172	583.4
213.547	587
213.923	589
214.299	590.8
214.675	591
215.051	590
215.427	593.6
215.803	602.6
216.179	589
216.555	588
216.932	593.4
217.308	597.4
217.684	590
218.061	585.2
218.438	598.6
218.814	587.6
219.191	597.2
219.568	584.8
219.945	582.4
220.322	585.6
220.699	591.6
221.076	596.8
221.453	591.4
221.83	578.4
222.208	577.2
222.585	580.4
222.962	579.8
223.34	591.8
223.717	585
224.095	579
224.473	585.8
224.851	579.6
225.229	576
225.607	596.2
225.985	579.8
226.363	585.2
226.741	580.4
227.119	584.4
227.497	607.8
227.876	575
228.254	594
228.633	596.4
229.011	591.8
229.39	592.4
229.769	585
230.148	590
230.527	604.6
230.905	588
231.284	590.4
231.664	586.8
232.043	598.2
232.422	595.6
232.801	584.2
233.181	579
233.56	589.6
233.94	587.6
234.319	572.4
234.699	584.6
235.079	622.2
235.458	616.4
235.838	598.8
236.218	580
236.598	574.2
236.978	578.8
237.358	583
237.738	583.6
238.119	588.2
238.499	570.8
238.88	579
239.26	594.4
239.641	574.6
240.021	575.6
240.402	586.4
240.783	587.8
241.163	581.2
241.544	590
241.925	594.6
242.306	606
242.687	585.6
243.069	588.4
243.45	591
243.831	586.4
244.212	582.8
244.594	619.8
244.975	590.6
245.357	588.4
245.739	584.6
246.12	587.2
246.502	599.8
246.884	592.4
247.266	585.6
247.648	590.8
248.03	601.8
248.412	593.6
248.794	591
249.176	588.6
249.559	593.8
249.941	581.2
250.323	576.4
250.706	574.4
251.089	585.2
251.471	591
251.854	587.8
252.237	590.4
252.62	598.6
253.002	592.8
253.385	591.8
253.769	592.4
254.152	596
254.535	593.8
254.918	585.8
255.301	582.6
255.685	581.4
256.068	578.4
256.452	605.6
256.835	589.6
257.219	581.2
257.603	600.4
257.986	580.2
258.37	585.8
258.754	585
259.138	586.2
259.522	584.8
259.906	580
260.29	592.2
260.675	588.8
261.059	581.2
261.443	582
261.828	596.6
262.212	592.2
262.597	577.6
262.981	583
263.366	589.8
263.751	592.8
264.136	587
264.521	590
264.906	579
265.291	595.6
265.676	587.2
266.061	587.2
266.446	607.6
266.831	587.8
267.217	601.8
267.602	592.8
267.987	589.2
268.373	582.8
268.759	599.6
269.144	590.4
269.53	587.6
269.916	585.4
270.302	583.2
270.688	591.8
271.074	592.6
271.46	599.6
271.846	611
272.232	587.2
272.618	587
273.004	588.8
273.391	595.2
273.777	594.4
274.164	594.4
274.55	594.6
274.937	587.8
275.324	588
275.71	597.4
276.097	596.6
276.484	573
276.871	583.6
277.258	588.4
277.645	584.6
278.032	592
278.419	587
278.807	592.4
279.194	588.4
279.581	586.6
279.969	595.6
280.356	587.8
280.744	586
281.131	610.8
281.519	598.2
281.907	589.2
282.295	585.6
282.682	596.4
283.07	588.4
283.458	595.2
283.846	594.6
284.235	594.2
284.623	591.6
285.011	582
285.399	588.4
285.788	591.2
286.176	579.4
286.565	591
286.953	585
287.342	581.6
287.731	582.2
288.119	578
288.508	586.2
288.897	585.2
289.286	579.6
289.675	590.6
290.064	591
290.453	587.4
290.821	594.8
291.21	603.4
291.599	583.4
291.989	583.6
292.378	589.6
292.768	599.4
293.157	593.4
293.547	594.6
293.936	589.4
294.326	585.6
294.716	591.2
295.106	579
295.496	597.8
295.886	597.4
296.276	582.6
296.666	579.6
297.056	593.4
297.446	574.8
297.836	595.4
298.227	591.2
298.617	590.8
299.008	595.2
299.398	588.2
299.789	585.6
300.179	588.2
300.57	599.8
300.961	588.8
301.352	585.8
301.742	589
302.133	587.8
302.524	590.4
302.915	594.6
303.307	580.2
303.698	593.6
304.089	595
304.48	587.2
304.872	587.8
305.263	586.4
305.655	582.2
306.046	591.8
306.438	587
306.829	581.8
307.221	599.4
307.613	591.2
308.005	597.6
308.397	603.4
308.789	601.6
309.181	607.2
309.573	604.4
309.965	598.2
310.357	585.8
310.749	596.2
311.142	578
311.534	592.8
311.926	599
312.319	593.2
312.711	587.6
313.104	601.6
313.497	588.2
313.889	623.6
314.282	602.8
314.675	610
315.068	582.6
315.461	593
315.854	612.8
316.247	598.6
316.64	587.2
317.033	589
317.405	594.6
317.798	587.2
318.192	589.4
318.585	593
318.979	593.8
319.372	585.4
319.766	582.2
320.16	584.8
320.553	601.8
320.947	603.4
321.341	581.2
321.735	585.2
322.129	573.6
322.523	611.4
322.917	583.2
323.311	598.6
323.705	593.6
324.099	588.6
324.494	609
324.888	597.8
325.282	590
325.677	595.2
326.071	594
326.466	597.6
326.861	591.6
327.255	594.2
327.65	596.2
328.045	606.6
328.44	589.4
328.835	593.6
329.23	581.4
329.625	599.6
330.02	577.8
330.415	605
330.81	591.8
331.206	595.4
331.601	585.4
331.996	594.6
332.37	597.4
332.766	581.8
333.161	603.2
333.557	581.2
333.953	585.6
334.348	838.4
334.744	589
335.14	578
335.536	583
335.932	593
336.328	586.8
336.724	588.4
337.12	586.6
337.516	586.6
337.913	586
338.309	603
338.705	591.2
339.102	598.6
339.498	579.6
339.895	592
340.291	590.8
340.688	592.4
341.085	581
341.481	586.2
341.878	584.6
342.275	603.8
342.672	578.6
343.069	582.6
343.466	584
343.842	595.8
344.239	577.8
344.636	578
345.033	582.4
345.431	586.6
345.828	586.4
346.225	585.4
346.623	614.8
347.02	580.8
347.418	587.6
347.816	599.8
348.213	587
348.611	591.8
349.009	585
349.407	590.8
349.805	571.4
350.203	577.4
350.601	595
350.999	588.6
351.397	641.2
351.795	582.8
352.193	596.4
352.57	589.2
352.969	586.8
353.367	583.8
353.766	582.2
354.164	584
354.563	583.4
354.961	584
355.36	585.4
355.759	581
356.158	579.6
356.557	574
356.956	578.6
357.355	575.6
357.754	582.6
358.153	592
358.552	606.6
358.951	577
359.35	594.8
359.75	574.6
360.149	577.8
360.527	571.2
360.926	574
361.326	586.6
361.726	583.2
362.125	575.8
362.525	588.4
362.925	591.4
363.325	577.8
363.724	573.8
364.124	580
364.524	571.8
364.924	576.4
365.324	593.4
365.725	565.2
366.125	589.2
366.525	587.4
366.904	576
367.304	571.2
367.705	597.6
368.105	592.6
368.506	573
368.906	580
369.307	588.4
369.708	581.4
370.108	571.8
370.509	589.2
370.91	577.8
371.311	586.8
371.712	587.8
372.113	583
372.514	567
372.894	587.2
373.295	578.2
373.696	590.6
374.097	593
374.499	603.4
374.9	584.4
375.301	578
375.703	587.6
376.105	576.2
376.506	591.2
376.908	583.2
377.309	582.6
377.711	578.4
378.113	577.6
378.493	579
378.895	576
379.297	583.6
379.699	576.4
380.102	581.2
380.504	584.8
380.906	572.6
381.308	599.6
381.71	585.2
382.113	591.2
382.515	584.8
382.918	589.4
383.299	579
383.701	590.8
384.104	581.6
384.507	566
384.909	576.2
385.312	570.4
385.715	574.8
386.118	580.2
386.521	571
386.924	585.4
387.327	575.2
387.709	578.2
388.112	564.2
388.515	578
388.918	576.6
389.322	583.4
389.725	583.6
390.129	595.8
390.532	583.8
390.936	577.2
391.339	572.6
391.743	582.4
392.125	577
392.529	593.2
392.933	591.4
393.337	580.2
393.74	572
394.144	573.2
394.548	579
394.953	577.2
395.357	592.2
395.761	582.6
396.144	586
396.548	575.4
396.952	586.8
397.357	581
397.761	579.4
398.166	575.8
398.57	577
398.975	567.2
399.379	585
399.763	625
400.168	583.2
400.572	575
400.977	576
401.382	599
401.787	586
402.192	590
402.597	590.6
403.002	569.6
403.386	591.6
403.791	590.2
404.197	577.4
404.602	581
405.007	577
405.413	581.6
405.818	581
406.224	574.2
406.608	584.8
407.014	570
407.42	590.4
407.825	568.4
408.231	585
408.637	578.2
409.043	598.6
409.449	571.4
409.834	571
410.24	578
410.646	587.4
411.052	588.6
411.458	582.2
411.865	589.4
412.271	583
412.677	577.6
413.062	588
413.469	579.4
413.875	604.2
414.282	592.6
414.689	585.8
415.095	584.2
415.502	579
415.888	586.2
416.294	569.4
416.701	607
417.108	579.2
417.515	579
417.923	581
418.33	603
418.715	580.2
419.123	574.6
419.53	582.8
419.937	591.6
420.345	591.6
420.752	571
421.16	590.8
421.546	577.6
421.953	585
422.361	583.4
422.769	577.6
423.177	573.4
423.585	607.2
423.992	592.8
424.379	591.4
424.787	585
425.195	593
425.603	576.6
426.011	590.6
426.419	593.6
426.806	587
427.214	587
427.623	594
428.031	598.8
428.44	591.6
428.848	597
429.235	605
429.644	591.6
430.053	596.4
430.461	605.4
430.87	621.8
431.279	607.4
431.666	592.4
432.075	610
432.484	610.8
432.893	611.2
433.302	640.4
433.711	655.4
434.099	641.6
434.508	633.2
434.918	633.8
435.327	662.2
435.737	659.4
436.125	670.8
436.534	676.6
436.944	681.2
437.353	691.2
437.763	718.2
438.173	690.6
438.561	726
438.971	703
439.381	713.8
439.791	731.4
440.201	714.8
440.589	738.6
440.999	761
441.409	750.6
441.819	742.4
442.23	773.2
442.619	783
443.029	770.8
443.439	772.6
443.85	790.4
444.26	800.2
444.649	793.8
445.06	785.6
445.471	796.2
445.881	802.4
446.292	819.2
446.682	823.4
447.092	800.2
447.503	836.8
447.914	812.2
448.325	818.6
448.715	820.4
449.126	811.6
449.537	814.8
449.948	810.8
450.338	834.4
450.75	833.8
451.161	834.4
451.572	826.6
451.984	820.2
452.374	811.6
452.786	831.6
453.197	824.2
453.609	840.8
453.999	824.4
454.411	828.4
454.823	849.2
455.235	844.8
455.647	825
456.037	840.2
456.449	827
456.862	846.4
457.274	840.8
457.665	831.8
458.077	844.6
458.489	867.6
458.902	831
459.293	852.4
459.705	844.8
460.118	841.6
460.53	852.2
460.921	850.4
461.334	854.6
461.747	849.4
462.16	847.4
462.551	850.2
462.964	847.4
463.377	833.8
463.79	841.8
464.182	847.4
464.595	844
465.008	854.6
465.421	854.6
465.813	845.2
466.226	853.6
466.64	850.6
467.053	876.6
467.445	858.2
467.859	863.6
468.272	842.4
468.686	853.6
469.078	838.2
469.492	839.2
469.906	840.6
470.298	831.4
470.712	838
471.126	885.2
471.54	832
471.933	847.2
472.347	826
472.761	837.2
473.175	826
473.568	839.6
473.982	825.2
474.397	841.6
474.79	840.2
475.204	848.2
475.619	836.2
476.033	846.6
476.426	835.2
476.841	828.2
477.256	848
477.649	829
478.064	823.6
478.479	826.4
478.872	824.2
479.287	810.4
479.702	819.2
480.118	825.8
480.511	815.6
480.927	814.6
481.342	813.8
481.736	817.6
482.151	808.8
482.566	822.6
482.96	820
483.376	816.6
483.792	808.4
484.186	811
484.602	802.4
485.017	808.2
485.412	813.2
485.827	813.2
486.243	810.8
486.638	822.8
487.054	804.4
487.47	811.6
487.865	797
488.281	796.4
488.697	794.2
489.092	799.4
489.508	786.4
489.925	792.2
490.32	780.6
490.736	793
491.153	795.6
491.548	785
491.964	792.2
492.381	775.6
492.776	782.4
493.193	778.8
493.61	792.6
494.006	775.8
494.422	789
494.84	771.6
495.235	777.8
495.652	770.2
496.069	764.8
496.465	762.2
496.883	768.4
497.3	792.6
497.696	750.4
498.113	763
498.509	752.2
498.927	745.8
499.344	757.2
499.741	750.8
500.158	769
500.576	761.6
500.973	747.8
501.39	742
501.787	736.2
502.205	754.2
502.623	744.6
503.02	733
503.438	731.8
503.856	734
504.253	736
504.671	733.8
505.068	729.8
505.486	727.2
505.905	754.4
506.302	734.2
506.72	733.2
507.118	712.6
507.536	719.2
507.955	733.2
508.352	727.8
508.771	724.2
509.169	735.4
509.587	710.4
510.006	716.4
510.404	707
510.823	711.6
511.221	704.4
511.64	707
512.038	715.2
512.457	705.4
512.877	696
513.275	704.4
513.694	699.4
514.092	707.6
514.512	694.4
514.91	703.6
515.33	689.6
515.749	693.4
516.148	694.6
516.568	690
516.966	693.2
517.386	683.6
517.785	687.6
518.205	691
518.603	685.8
519.024	676.8
519.444	689.2
519.843	693
520.263	689.8
520.662	687.2
521.082	679
521.481	669.2
521.902	678.8
522.301	688.2
522.722	670.8
523.121	674.2
523.542	674.4
523.963	671.6
524.362	671.8
524.783	675.8
525.183	660.2
525.604	665.6
526.003	658.4
526.425	661.8
526.824	665.6
527.246	670.4
527.646	663.6
528.067	661
528.467	657.2
528.888	656.8
529.289	648.4
529.71	658.8
530.11	650.8
530.532	649
530.932	643.6
531.354	650.6
531.755	680.6
532.176	654.2
532.577	646.8
532.999	645.8
533.4	645.4
533.822	657.4
534.223	662
534.645	643.4
535.046	646.6
535.468	645.8
535.869	660
536.292	640.8
536.693	669
537.115	643
537.516	629.4
537.939	639.2
538.34	662
538.742	651.2
539.165	640.6
539.566	646.8
539.989	629.4
540.391	638
540.814	639.4
541.216	635.2
541.639	640
542.041	642.6
542.464	634.6
542.866	630.2
543.268	623
543.691	630.2
544.093	634.6
544.517	647.2
544.919	622
545.343	642.4
545.745	622.2
546.147	621
546.571	629.6
546.974	617.8
547.398	629.6
547.8	633.8
548.224	627
548.627	622.4
549.03	623.6
549.454	609.4
549.857	614.4
550.281	617
550.684	612.4
551.087	625.2
551.512	624.4
551.915	621.4
552.34	615.2
552.743	614.4
553.146	614
553.571	615.4
553.975	631.4
554.399	611.8
554.803	649.4
555.207	611
555.632	612
556.036	615.4
556.461	600.6
556.865	618.4
557.268	611.6
557.694	606.4
558.098	616.4
558.502	608.8
558.927	605.4
559.332	609.4
559.736	606.2
560.162	609.2
560.566	609.4
560.992	608.6
561.396	608
561.801	604.8
562.227	603.6
562.631	598.2
563.036	604.8
563.462	614.2
563.867	606
564.272	591.2
564.698	610.6
565.103	591.4
565.508	619.4
565.935	601.2
566.34	594.2
566.745	615.2
567.172	597.8
567.577	614.6
567.982	606
568.409	612.4
568.815	601.2
569.22	601
569.626	600.2
570.053	587.8
570.459	599.6
570.865	607.8
571.292	600.8
571.698	599.4
572.104	589.8
572.531	593.2
572.937	606.6
573.343	595.4
573.75	592.8
574.177	598
574.583	599.2
574.99	594
575.396	598
575.824	595.8
576.231	600.6
576.637	585.4
577.065	619.6
577.472	591
577.879	591
578.286	596.6
578.714	579.6
579.121	585.8
579.528	586.8
579.935	598
580.364	592.6
580.771	576.4
581.178	584.8
581.585	588.6
582.014	592.8
582.421	584.4
582.829	584.6
583.236	602.6
583.644	575.4
584.073	583.2
584.481	586
584.889	583.8
585.296	584.6
585.726	586.6
586.134	573.6
586.542	583.6
586.95	603.4
587.358	578.2
587.787	595.4
588.196	597.8
588.604	579.2
589.012	586.8
589.421	583.2
589.851	578.8
590.259	586.2
590.668	577.2
591.076	609.6
591.485	579
591.894	588
592.324	595
592.733	589.4
593.142	575.6
593.551	579.4
593.96	578.6
594.369	569.4
594.8	576
595.209	583.4
595.618	568.6
596.028	574.8
596.437	570.8
596.847	581
597.256	582.4
597.687	583.4
598.097	584
598.507	572
598.917	579.2
599.327	584.6
599.736	582.2
600.146	591.8
600.556	580.6
600.988	592.8
601.398	577.8
601.808	591.4
602.219	570.2
602.629	585.6
603.039	583
603.45	604.6
603.86	581.6
604.271	584.8
604.703	579.6
605.114	574.8
605.525	576
605.935	577.6
606.346	595.2
606.757	581.4
607.168	577.4
607.579	574.2
607.99	589.4
608.402	575.8
608.813	587
609.224	578.6
609.636	570.2
610.047	579.2
610.48	573.4
610.892	579
611.303	588.2
611.715	571.8
612.127	569.4
612.539	574.6
612.95	578
613.362	571
613.774	570.6
614.186	570.6
614.599	574.6
615.011	587
615.423	581.6
615.835	572.4
616.248	563
616.66	580.2
617.073	574.4
617.485	575
617.898	581.2
618.311	578.2
618.723	574
619.136	604.8
619.549	590.2
619.962	591.6
620.375	575
620.788	576.8
621.201	580
621.614	588
622.028	575.6
622.441	581.2
622.854	578.2
623.268	571.2
623.681	582
624.095	576.2
624.509	581.2
624.922	581
625.336	569.2
625.728	584.2
626.142	584
626.556	594.2
626.97	577.8
627.384	567.8
627.799	576.4
628.213	584
628.627	570.8
629.041	577.2
629.456	569.8
629.87	571
630.285	581.6
630.699	589.4
631.093	577.6
631.507	579.6
631.922	571.8
632.337	583
632.752	571
633.167	580.4
633.582	574.2
633.997	573
634.412	577.6
634.806	574.8
635.221	570.2
635.637	589.8
636.052	563.6
636.468	574.4
636.883	593
637.299	570.2
637.715	564.8
638.109	573.6
638.525	566.2
638.941	580
639.357	577.8
639.773	589
640.189	570.4
640.584	580.4
641	575.6
641.416	566.8
641.832	572.4
642.249	566.8
642.665	570.2
643.06	574.8
643.477	577
643.894	560.6
644.31	561.2
644.727	567.4
645.123	565
645.54	571.6
645.957	574.6
646.374	581.8
646.77	572.6
647.187	594.8
647.604	573.4
648.021	556.2
648.439	565.2
648.835	572.8
649.252	566.2
649.67	564.4
650.088	575.6
650.484	573.4
650.902	580
651.32	573.8
651.738	567.4
652.134	577.4
652.552	573.4
652.971	569.8
653.389	568.6
653.786	578.6
654.204	582.2
654.622	567.4
655.019	571.2
655.438	572.6
655.857	571.2
656.275	569
656.673	562.2
657.091	577.8
657.51	563.6
657.908	581.4
658.327	580.6
658.746	556.2
659.144	558.6
659.563	577.6
659.982	574.8
660.38	562
660.8	563
661.219	578.4
661.617	573
662.037	569
662.457	579.6
662.855	555.8
663.275	588.6
663.695	564.4
664.094	566
664.514	567
664.934	564.4
665.333	571
665.753	567.2
666.152	563.6
666.572	564
666.993	578.2
667.392	567.8
667.812	569.4
668.212	571.6
668.632	575.6
669.053	561.8
669.453	566.6
669.874	573
670.273	568.2
670.694	559
671.116	570
671.515	578
671.937	572.2
672.337	564.6
672.758	561
673.158	576
673.58	562.4
673.98	564.2
674.402	573
674.824	562.6
675.224	558
675.646	555.8
676.047	555.2
676.469	566
676.869	561.4
677.292	566.8
677.693	556.8
678.115	563.2
678.516	565.6
678.939	567.4
679.34	564.2
679.762	569
680.164	557.6
680.586	562
680.988	573.2
681.411	579.8
681.812	567.4
682.236	567.8
682.637	559.4
683.061	559
683.462	569.4
683.864	556
684.288	568.2
684.69	561.4
685.114	572.8
685.516	570.8
685.94	550.4
686.342	572.8
686.766	561.8
687.168	565
687.571	582.2
687.995	566.2
688.398	562
688.822	560
689.225	575.8
689.628	588.2
690.052	568.8
690.456	571
690.88	562.2
691.284	559.4
691.687	571.8
692.112	552.6
692.515	556
692.919	561
693.344	567.6
693.747	565.2
694.173	560.6
694.577	577.8
694.98	565.4
695.406	562
695.81	571.4
696.214	565
696.64	567.8
697.044	565.2
697.448	571.2
697.874	566.2
698.279	563.2
698.684	553.6
699.11	556.8
699.514	557
699.919	557.2
700.324	555.4
700.75	568
701.156	560.8
701.561	568.6
701.987	574.2
702.393	575.8
702.798	576.6
703.203	568.2
703.63	561
704.036	563.4
704.442	569.6
704.847	562.8
705.274	561.4
705.68	573.2
706.086	566.2
706.492	555.6
706.92	556
707.326	568.8
707.732	556.2
708.139	558.2
708.545	553.4
708.973	559.6
709.38	559.8
709.786	552.6
710.193	567.6
710.6	563.2
711.028	557
711.435	555.8
711.842	564.2
712.249	563.6
712.656	557.4
713.064	571.2
713.492	551.2
713.9	564
714.307	559.4
714.715	557
715.123	565.8
715.53	566.4
715.938	570
716.367	560.2
716.775	559.2
717.184	558.2
717.592	563.8
718	567.6
718.408	595.4
718.816	593.4
719.225	562
719.633	563.8
720.042	557.4
720.472	560
720.881	578.4
721.29	568.2
721.699	553.8
722.108	568.4
722.517	563.8
722.926	563.4
723.335	568
723.744	556.2
724.154	565.2
724.563	563.8
724.973	561.4
725.382	556.4
725.792	560.6
726.202	551
726.612	580.8
727.022	547.8
727.432	554.4
779.813	562
780.223	594.6
780.634	558.4
781.044	551.6
781.454	553.6
781.865	571.4
782.276	550.4
782.686	568.4
783.097	562
783.508	567.8
783.919	567.4
784.33	568.8
784.741	568.6
785.152	558.8
785.563	548.4
785.974	560.4
786.386	563.2
786.776	554.4
787.188	566.4
787.599	556
788.011	565.4
788.423	570.4
788.835	555.2
789.247	557.2
789.659	556.8
790.071	558.6
790.483	597.8
790.874	556.2
791.286	563
791.699	560.2
792.111	560.2
792.524	555.6
792.937	557
793.349	555.4
793.741	555.6
794.154	551.6
794.567	574.2
794.98	557.4
795.393	551.4
795.785	568.6
796.198	555.4
796.612	561.6
797.026	554.8
797.439	549.6
797.831	557.2
798.245	550.2
798.659	560.6
799.073	561.4
799.487	555.8
799.88	559
800.294	565.4
800.708	560.6
801.123	557
801.516	573.6
801.93	549.4
802.345	549.8
802.76	560
803.153	570.2
803.568	575.2
803.983	572.6
804.377	559.4
804.792	550.8
805.207	559
805.601	548.2
806.016	604.8
806.432	555
806.826	583
807.242	571
807.658	564.6
808.052	554.6
808.468	552.4
808.884	553.8
809.279	560
809.695	564.2
810.111	574.6
810.506	558.8
810.922	570.4
811.339	557.2
811.734	565.6
812.151	559.8
812.546	554.4
812.963	554
813.38	556.4
813.776	558.2
814.193	582.8
814.589	553.8
815.006	558.6
815.402	549
815.82	552.2
816.237	561.4
816.633	561.6
817.051	546.8
817.448	562.2
817.866	554.2
818.262	570.4
818.68	557.4
819.077	562
819.495	552
819.892	591.6
820.311	552
820.708	555
821.127	551.2
821.524	572.4
821.943	567
822.34	571.2
822.759	562.2
823.157	556.6
823.576	566
823.974	568.6
824.393	595
824.791	551
825.189	551.2
825.609	555.2
826.007	556
826.427	549.4
826.826	549.6
827.246	562.6
827.644	548.6
828.043	564.6
828.463	561
828.862	571
829.261	562.6
829.682	549.8
830.081	563.6
830.502	553.4
830.901	558.8
831.301	580.2
831.722	551.8
832.121	550.8
832.521	550.2
832.943	548.2
833.342	560.2
833.742	551.8
834.164	554.4
834.564	550.8
834.965	564
835.386	554.4
835.787	559.4
836.188	549.2
836.588	562
837.01	557
837.411	552
837.812	560.6
838.213	556.4
838.636	558.8
839.037	608.8
839.438	562
839.84	557
840.263	564
840.664	564.2
841.066	554.2
841.468	563.6
841.891	552.6
842.293	561.6
842.695	566
843.098	564.2
843.5	549.8
843.902	563.8
844.326	561.4
844.729	565.8
845.131	566.2
845.534	554.4
845.937	563.6
846.34	569
846.764	549.2
847.167	557.4
847.571	551.8
847.974	562.8
848.377	558
848.781	599.8
849.184	570.2
849.588	553.6
849.992	557.2
850.396	558.6
850.821	578.8
851.225	564.8
851.63	552
852.034	577
852.438	565.6
852.843	621.2
853.247	555.4
853.652	557.2
854.057	572
854.462	561.8
854.867	560.2
855.272	584.8
855.677	558.4
856.082	551
856.487	546.4
856.893	560.4
857.298	561.8
857.704	543.2
858.11	559
858.516	572.4
858.922	557
859.328	560
859.734	561.2
860.14	560.8
860.525	561.4
860.931	556.8
861.338	547.4
861.745	563.2
862.151	567.6
862.558	562.4
862.965	549
863.372	559
863.779	554
864.186	570.4
864.572	553.6
864.98	568.8
865.387	579.4
865.795	558
866.203	568.6
866.61	547.6
867.018	563
867.405	561.6
867.813	549.8
868.221	559.2
868.63	551.2
869.038	568.2
869.425	576.8
869.834	559.2
870.243	541.6
870.652	548.2
871.039	551.6
871.448	552.6
871.857	552
872.266	548.4
872.654	558.8
873.064	544.4
873.473	557.8
873.883	549.6
874.271	547.8
874.681	558.8
875.091	542
875.48	562.6
875.89	567.8
876.3	552.6
876.689	550.4
877.1	555
877.51	556.2
877.9	581
878.31	552.2
878.721	582.4
879.111	558
879.522	553.4
879.933	547.8
880.323	544.2
880.734	547
881.125	558.2
881.536	553.6
881.948	550.6
882.338	558.6
882.75	564.2
883.141	549.8
883.553	561.2
883.944	579.4
884.356	564
884.769	558.4
885.16	561.6
885.573	555.4
885.964	552.6
886.377	557.6
886.768	547
887.181	559.6
887.573	548
887.987	557.4
888.378	563.6
888.792	555.2
889.184	591.4
889.598	545
889.99	555.2
890.383	549.8
890.797	547.4
891.19	558.2
891.604	559.8
891.997	553.8
892.411	551.4
892.805	555.4
893.198	549.2
893.613	550
894.006	556.4
894.421	549.4
894.815	555
895.209	557.8
895.624	587
896.018	570.2
896.412	554
896.828	549.6
897.222	560.2
897.617	548.4
898.033	569
898.427	562.2
898.822	558.4
899.239	551
899.634	546
900.029	570.2
900.424	549.8
900.841	540.4
901.236	563.8
901.632	574.6
902.027	605.4
902.445	559.6
902.841	558.8
903.237	554
903.633	568
904.05	562.8
904.447	557.4
904.843	566.4
905.24	550.8
905.636	548.2
906.033	556.6
906.451	565
906.848	546.2
907.246	554
907.643	552.4
908.04	565.4
908.438	573.4
908.835	553.6
909.254	558
909.652	555
910.05	555
910.448	544
910.846	557
911.244	546.4
911.643	557.6
912.041	546.2
912.44	569.6
912.839	547.6
913.237	551.6
913.636	544.6
914.035	565.6
914.434	551.6
914.834	561.6
915.233	566.2
915.633	551.6
916.032	552.4
916.432	550
916.832	568.4
917.232	549.6
917.632	551.4
918.032	561.8
918.432	554.6
918.833	550.2
919.233	549
919.634	544.8
920.035	557.4
920.436	541.2
920.837	557.4
921.238	546.4
921.639	553.2
922.019	556.4
922.42	552.8
922.822	553.2
923.224	562
923.625	556.6
924.027	555.8
924.429	572
924.81	561.2
925.212	554.8
925.615	560.4
926.017	549.4
926.42	555
926.801	548
927.204	554.2
927.607	563.6
928.01	571.4
928.413	559.4
928.795	544.2
929.199	545
929.602	556.2
930.006	550.8
930.388	554
930.792	562
931.196	556.8
931.579	584.4
931.983	548.8
932.388	596.8
932.771	543.2
933.176	556.8
933.58	549.4
933.964	554.8
934.369	545
934.774	556.4
935.158	553.2
935.563	561.8
935.947	555.2
936.353	563.8
936.759	552.2
937.143	559.6
937.549	553.2
937.934	560
938.34	574.2
938.746	548
939.131	545.6
939.538	555.4
939.923	557.4
940.33	543.8
940.716	550
941.123	554.2
941.508	572
941.916	569.4
942.302	559
942.709	546.4
943.096	549
943.503	567.6
943.89	552.2
944.298	554.2
944.685	576.2
945.072	551
945.48	560.8
945.867	558
946.276	549.6
946.663	573.8
947.051	562.6
947.46	564.2
947.848	561.2
948.257	550.8
948.645	550.2
949.033	543
949.443	547
949.831	588.4
950.22	546.8
950.63	561.2
951.018	574.2
951.407	546.6
951.796	548.8
952.207	552.4
952.596	564.2
952.985	543.4
953.375	587.6
953.786	549.8
954.176	555.2
954.566	556
954.956	553.4
955.367	550.4
955.758	574
956.148	542.6
956.539	560.8
956.929	538.4
957.341	545.4
957.732	553.2
958.123	562.2
958.515	548.6
958.906	555
959.297	557.8
959.689	554.4
960.102	547.8
960.494	553.6
960.886	552.2
961.278	551.6
961.67	571.8
962.062	591.4
962.455	547.8
962.847	543
963.24	552.4
963.633	548
964.026	549
964.419	548.8
964.812	558
965.206	546.4
965.599	556.8
965.993	547.6
966.386	548.2
966.78	553.6
967.174	558.6
967.569	544.8
967.963	543.4
968.357	553
968.752	546.6
969.146	548.6
969.541	548.2
969.936	546.4
970.331	547.8
970.705	549.8
971.1	557
971.496	557.8
971.892	549.2
972.287	558.6
972.683	561.8
973.079	549.4
973.454	562.8
973.85	557
974.247	555.4
974.643	576.6
975.04	556
975.415	555.2
975.812	550.6
976.209	554.8
976.607	555.8
976.982	566.8
977.38	566.8
977.778	552.6
978.175	548.4
978.552	553.4
978.95	560.4
979.348	556.6
979.725	589.8
980.123	549.2
980.522	545.8
980.899	556.6
981.298	547.8
981.697	562.8
982.075	554.4
982.474	550.4
982.852	546.8
983.251	556.6
983.651	551.6
984.029	556
984.429	549
984.808	545.4
985.208	554.4
985.609	544.8
985.987	541.8
986.388	541
986.768	553.6
987.168	543.8
987.548	555.2
987.949	556
988.329	556.4
988.731	544.4
989.111	556.8
989.491	554.4
989.893	556
990.273	555.8
990.676	552.2
991.057	543.2
991.459	548.2
991.84	551.6
992.221	547
992.624	569.6
993.006	549.4
993.388	551.4
993.791	553.6
994.173	551.2
994.576	578
994.959	543
995.341	547.8
995.724	547.4
996.128	549.8
996.511	554
996.894	540.6
997.298	547
997.681	560.4
998.065	543.4
998.448	544
998.854	558
999.237	553.8
999.621	552.4
1000.01	570
1000.39	547.8
1000.8	553.2
1001.18	557.4
1001.56	551.8
1001.95	562.4
1002.33	557.4
1002.72	559.2
1003.13	552.2
1003.51	557.6
1003.9	553
1004.28	568
1004.67	544.2
1005.06	549.4
1005.44	580
1005.83	547
1006.21	552.2
1006.6	540.6
1006.99	555.6
1007.37	560.6
1007.76	554.6
1060.12	544
1060.51	550.8
1060.89	553.4
1061.28	564.4
1061.67	566.8
1062.06	555
1062.45	546.6
1062.83	549.8
1063.22	563.4
1063.61	584.4
1064	552.6
1064.39	551.4
1064.78	549.2
1065.14	555.8
1065.53	552.6
1065.92	549.2
1066.31	543.2
1066.7	554.4
1067.09	561
1067.46	559.6
1067.85	553
1068.24	551.6
1068.63	556.6
1069.02	543.6
1069.39	558.4
1069.78	556.2
1070.17	542.4
1070.57	545.2
1070.93	553.4
1071.33	545.8
1071.72	549.4
1072.11	550.6
1072.48	550.4
1072.87	548.6
1073.26	547.6
1073.64	557
1074.03	543.4
1074.4	544.8
1074.79	549.8
1075.19	553.8
1075.56	546.6
1075.95	554.4
1076.34	551.4
1076.72	554.4
1077.11	549.2
1077.48	557.8
1077.88	550.6
1078.25	554
1078.64	559.4
1079.02	561.8
1079.41	553.8
1079.78	550.4
1080.18	546.6
1080.55	607.2
1080.95	543
1081.32	550.6
1081.72	560.6
1082.09	556.8
1082.49	543.2
1082.86	550.8
1083.24	548
1083.63	547.4
1084.01	557.4
1084.38	555
1084.78	545.2
1085.16	547.6
1085.55	571.6
1085.93	570.8
1086.31	546.4
1086.7	571.4
1087.08	554.6
1087.46	553.8
1087.83	542.8
1088.23	560
1088.61	549.4
1088.99	560.2
1089.36	545.2
1089.76	546.8
1090.14	544.2
1090.52	550.4
1090.9	549
1091.27	561.2
1091.67	570.2
1092.05	551.2
1092.43	545.8
1092.81	554
1093.19	557.8
1093.57	542
1093.95	546.6
1094.35	551.8
1094.73	561
1095.11	549.4
1095.49	536.6
1095.87	539.6
1096.25	555.8
1096.63	547.6
1097.01	545.4
1097.39	553
1097.77	554
1098.15	549.2
1098.53	546.2
1098.91	546.4
1099.29	547.2
1099.68	563.2
1100.06	557
1100.44	550.4
1100.82	555.2
1101.18	553.4
1101.56	553.6
1101.95	553.2
1102.33	547.8
1102.71	550.4
1103.1	536.6
1103.48	543.6
1103.86	549.6
1104.22	554.6
1104.61	542.8
1104.99	552.4
1105.38	538
1105.76	545.6
1106.12	542.6
1106.51	571.4
1106.89	559.4
1107.26	547.8
1107.64	555.2
1108.03	536.4
1108.41	543
1108.78	555.8
1109.16	550.4
1109.55	554.8
1109.91	540.2
1110.3	534.2
1110.69	554.8
1111.05	550.4
1111.44	548
1111.8	542.8
1112.19	548.6
1112.58	554
1112.94	546.8
1113.33	552.8
1113.7	539.4
1114.09	545.8
1114.45	541.2
1114.84	545.4
1115.21	561.4
1115.6	541.8
1115.96	552.8
1116.35	549.2
1116.72	551.6
1117.11	562
1117.48	552.8
1117.85	551.6
1118.24	564.6
1118.6	554.8
1118.99	546.4
1119.36	556
1119.73	550.6
1120.12	551.6
1120.49	541
1120.86	550.4
1121.25	548.8
1121.62	538.8
1121.99	544
1122.38	553.2
1122.76	549.8
1123.13	549.8
1123.5	560.8
1123.89	553.6
1124.26	542.2
1124.63	548.4
1125	544.8
1125.4	545.8
1125.77	537.6
1126.14	540
1126.51	546.8
1126.88	547.4
1127.26	542.6
1127.63	534.8
1128.02	547
1128.4	549.4
1128.77	550
1129.14	550.6
1129.52	546
1129.89	552.8
1130.26	544.8
1130.64	545.2
1131.01	545.8
