#lambda/nm	C1
208.295	548.4
208.67	485
209.045	456.6
209.419	455
209.794	601.4
210.169	591.6
210.544	696
210.919	603.2
211.295	597.6
211.67	596.4
212.045	603.8
212.421	598
212.796	633.8
213.172	598.6
213.547	583.4
213.923	594.2
214.299	598.2
214.675	608.8
215.051	602.4
215.427	606.8
215.803	610.4
216.179	611.8
216.555	596.4
216.932	613.8
217.308	607.8
217.684	593.8
218.061	603.4
218.438	603
218.814	591.8
219.191	603.6
219.568	597.4
219.945	598
220.322	601.8
220.699	607.8
221.076	597.8
221.453	609.4
221.83	601.4
222.208	593
222.585	598.8
222.962	602
223.34	600.6
223.717	597.2
224.095	593.6
224.473	601.4
224.851	593.8
225.229	586.2
225.607	610.6
225.985	590
226.363	599.8
226.741	591.6
227.119	597.4
227.497	606.6
227.876	584.8
228.254	599.8
228.633	604.8
229.011	599.8
229.39	601.4
229.769	598.6
230.148	601.6
230.527	617
230.905	601.4
231.284	602
231.664	590.6
232.043	609.2
232.422	595.8
232.801	605
233.181	604.4
233.56	600.2
233.94	601
234.319	588
234.699	596.2
235.079	627
235.458	636.2
235.838	612
236.218	590.8
236.598	585.8
236.978	592
237.358	596.6
237.738	594.4
238.119	592.8
238.499	584
238.88	597.6
239.26	607.4
239.641	590.2
240.021	596.6
240.402	595.2
240.783	599.6
241.163	604
241.544	601.6
241.925	593.6
242.306	618.6
242.687	604
243.069	605.8
243.45	609.8
243.831	596.8
244.212	604.2
244.594	637.6
244.975	613.4
245.357	600.4
245.739	595.2
246.12	592.6
246.502	618.4
246.884	597
247.266	596.8
247.648	609.2
248.03	618.2
248.412	602.8
248.794	607.4
249.176	595.4
249.559	609.8
249.941	596.8
250.323	596.2
250.706	595.4
251.089	592.8
251.471	596.8
251.854	597.8
252.237	601.4
252.62	609.8
253.002	601.2
253.385	601
253.769	613.6
254.152	595.2
254.535	601.6
254.918	590.6
255.301	600
255.685	595.2
256.068	590.8
256.452	620.8
256.835	614.2
257.219	609.2
257.603	610.4
257.986	590.4
258.37	603.6
258.754	589
259.138	610.8
259.522	606.6
259.906	598.4
260.29	604.6
260.675	602.8
261.059	607.6
261.443	597
261.828	607
262.212	603.2
262.597	590
262.981	603.8
263.366	606.4
263.751	603.6
264.136	595.6
264.521	597.2
264.906	603.8
265.291	605.2
265.676	606.8
266.061	606.8
266.446	614.6
266.831	598.2
267.217	617.6
267.602	610.8
267.987	606.6
268.373	596.2
268.759	608.2
269.144	606.2
269.53	602.4
269.916	591.6
270.302	595.4
270.688	613.4
271.074	607
271.46	614.4
271.846	627.6
272.232	609.4
272.618	591.6
273.004	606.4
273.391	610.4
273.777	615.8
274.164	603.6
274.55	613.4
274.937	601.6
275.324	596.6
275.71	610.6
276.097	610.6
276.484	592
276.871	605.4
277.258	603.4
277.645	587.6
278.032	600.4
278.419	597.2
278.807	612.6
279.194	593.6
279.581	596.2
279.969	605.6
280.356	609.2
280.744	605.4
281.131	633.2
281.519	607.6
281.907	599.2
282.295	598.4
282.682	617.4
283.07	607.8
283.458	609.8
283.846	618.4
284.235	610.4
284.623	609.2
285.011	589
285.399	606.4
285.788	605.2
286.176	595.2
286.565	609.6
286.953	588.4
287.342	598.4
287.731	592.2
288.119	593
288.508	600.6
288.897	595.8
289.286	581
289.675	606
290.064	603
290.453	593.8
290.821	590.6
291.21	611.8
291.599	592.6
291.989	596.6
292.378	602.2
292.768	613.4
293.157	610.4
293.547	602.2
293.936	594.8
294.326	593.4
294.716	599.2
295.106	602.2
295.496	604.4
295.886	614.6
296.276	600.6
296.666	590.6
297.056	595.8
297.446	595.2
297.836	614
298.227	600.6
298.617	600.8
299.008	607.8
299.398	597.4
299.789	597.8
300.179	603.4
300.57	611.6
300.961	592.2
301.352	601.4
301.742	601.6
302.133	598.2
302.524	596.8
302.915	600.6
303.307	595
303.698	614.6
304.089	604
304.48	601.4
304.872	595.2
305.263	600
305.655	596.4
306.046	601.6
306.438	603.4
306.829	597.6
307.221	608.6
307.613	613.4
308.005	603
308.397	609
308.789	615.6
309.181	623.2
309.573	616.4
309.965	605.6
310.357	595.6
310.749	611.8
311.142	600.4
311.534	593.4
311.926	607.2
312.319	604.6
312.711	595.6
313.104	612.8
313.497	608.4
313.889	633.2
314.282	614.4
314.675	631
315.068	608.2
315.461	608
315.854	625
316.247	606
316.64	605.8
317.033	608
317.405	609.2
317.798	600.8
318.192	604.4
318.585	595.4
318.979	600.2
319.372	594.8
319.766	590.6
320.16	614.6
320.553	613.6
320.947	611.8
321.341	596.2
321.735	602.8
322.129	593.2
322.523	615.8
322.917	594.8
323.311	608
323.705	606.8
324.099	599.2
324.494	612
324.888	602.8
325.282	606.6
325.677	607.2
326.071	601.4
326.466	608.2
326.861	603.4
327.255	606.8
327.65	614
328.045	611.4
328.44	609.8
328.835	594.2
329.23	583
329.625	621.6
330.02	602.4
330.415	612
330.81	599.6
331.206	597.4
331.601	596
331.996	617.2
332.37	624
332.766	591.4
333.161	623.4
333.557	596.2
333.953	597.8
334.348	974.4
334.744	598.2
335.14	589.6
335.536	598.2
335.932	611.8
336.328	595.2
336.724	611
337.12	592.6
337.516	602
337.913	599.8
338.309	624.8
338.705	604.4
339.102	604.8
339.498	593.6
339.895	614.4
340.291	596
340.688	611.6
341.085	595.8
341.481	595
341.878	597.4
342.275	619.8
342.672	593
343.069	591.2
343.466	591
343.842	607.2
344.239	601.2
344.636	599.4
345.033	595.4
345.431	594.2
345.828	598.4
346.225	598.8
346.623	622.6
347.02	609.4
347.418	596
347.816	614.4
348.213	593.4
348.611	605.6
349.009	596.2
349.407	620.4
349.805	589.6
350.203	592.4
350.601	608.2
350.999	604.4
351.397	641.4
351.795	599.6
352.193	609.4
352.57	610.4
352.969	611.4
353.367	585.8
353.766	600
354.164	593
354.563	609.6
354.961	605.8
355.36	592.8
355.759	588
356.158	590.8
356.557	595.2
356.956	587
357.355	589.6
357.754	603
358.153	599.4
358.552	616.6
358.951	597
359.35	611.4
359.75	596.8
360.149	586.4
360.527	587.2
360.926	596
361.326	592.8
361.726	596.4
362.125	590
362.525	598.8
362.925	595.8
363.325	591.4
363.724	600.4
364.124	592
364.524	589
364.924	595.2
365.324	605
365.725	575.6
366.125	599
366.525	588.4
366.904	593.4
367.304	583.2
367.705	613.8
368.105	608.4
368.506	595.6
368.906	597
369.307	595.8
369.708	597.8
370.108	590.8
370.509	606
370.91	587.2
371.311	594.2
371.712	600
372.113	591.6
372.514	583
372.894	591.2
373.295	597
373.696	602.4
374.097	603.2
374.499	618.8
374.9	594.6
375.301	594.6
375.703	591.8
376.105	587
376.506	590.4
376.908	598.6
377.309	594.8
377.711	607.8
378.113	590.8
378.493	600.8
378.895	594.2
379.297	601.8
379.699	580.4
380.102	593
380.504	590.8
380.906	584.6
381.308	607.2
381.71	590.2
382.113	601.2
382.515	587.6
382.918	597
383.299	594.2
383.701	598
384.104	594.6
384.507	577
384.909	593.4
385.312	582
385.715	584.8
386.118	593.4
386.521	577.2
386.924	600
387.327	575.8
387.709	576.8
388.112	573.6
388.515	586.4
388.918	594.4
389.322	596.2
389.725	581.8
390.129	611.8
390.532	602
390.936	588.4
391.339	591.4
391.743	597.2
392.125	584.2
392.529	598.2
392.933	599.4
393.337	588.2
393.74	589
394.144	593.4
394.548	578
394.953	585
395.357	600.6
395.761	594.2
396.144	594.2
396.548	589
396.952	586.2
397.357	596.2
397.761	588
398.166	586.4
398.57	584.2
398.975	577.6
399.379	586.6
399.763	636.6
400.168	593
400.572	593.8
400.977	587.4
401.382	616.4
401.787	603.6
402.192	604.6
402.597	605.8
403.002	577.4
403.386	599.8
403.791	611.6
404.197	592.8
404.602	586
405.007	595.2
405.413	592
405.818	597
406.224	587.4
406.608	597.8
407.014	589
407.42	612.2
407.825	587.2
408.231	603
408.637	586.6
409.043	601.8
409.449	585.8
409.834	586.6
410.24	594.2
410.646	604.8
411.052	600.4
411.458	591.4
411.865	593
412.271	606.2
412.677	599.2
413.062	601.8
413.469	590
413.875	611.6
414.282	606.4
414.689	591.2
415.095	605.8
415.502	587.2
415.888	592.8
416.294	572.4
416.701	629
417.108	579.4
417.515	592.8
417.923	593
418.33	616
418.715	612.4
419.123	594.2
419.53	601.8
419.937	591
420.345	604.8
420.752	583.4
421.16	598.6
421.546	592.2
421.953	601.2
422.361	592
422.769	595
423.177	591
423.585	605
423.992	615
424.379	596.6
424.787	606
425.195	617.8
425.603	588.8
426.011	608.4
426.419	601.4
426.806	593.4
427.214	601
427.623	606.2
428.031	616
428.44	603.2
428.848	603.6
429.235	612.6
429.644	602.8
430.053	607.2
430.461	627.6
430.87	629.2
431.279	623.2
431.666	620.8
432.075	622.4
432.484	632.8
432.893	633.4
433.302	649.4
433.711	678.2
434.099	654.4
434.508	652.2
434.918	643.8
435.327	674.4
435.737	675.6
436.125	685.8
436.534	690.4
436.944	698.4
437.353	713.4
437.763	736
438.173	712.4
438.561	738.2
438.971	724
439.381	739.4
439.791	756
440.201	725
440.589	751.2
440.999	760.6
441.409	778.8
441.819	769.2
442.23	785.4
442.619	796.6
443.029	791.6
443.439	798
443.85	811.4
444.26	814
444.649	811.4
445.06	808.6
445.471	809.2
445.881	827.2
446.292	837.2
446.682	845
447.092	820.4
447.503	875.2
447.914	838
448.325	842.8
448.715	832.2
449.126	836
449.537	844.4
449.948	845.4
450.338	845.8
450.75	851.2
451.161	858.6
451.572	864.2
451.984	855.2
452.374	858
452.786	850
453.197	856.6
453.609	855
453.999	842.2
454.411	861.2
454.823	864.6
455.235	860.6
455.647	869.2
456.037	872
456.449	861
456.862	870.4
457.274	867
457.665	870.8
458.077	868
458.489	908.4
458.902	872.4
459.293	883.6
459.705	868.8
460.118	873.6
460.53	879.4
460.921	870.2
461.334	884
461.747	878.2
462.16	886.4
462.551	883.2
462.964	873.2
463.377	854.2
463.79	866.4
464.182	874.4
464.595	859
465.008	871
465.421	867.8
465.813	864.2
466.226	866
466.64	858.6
467.053	900.8
467.445	886
467.859	888.2
468.272	874.2
468.686	881.4
469.078	873.2
469.492	871.8
469.906	880.8
470.298	875
470.712	869.8
471.126	906
471.54	866.6
471.933	858.6
472.347	865.6
472.761	859.4
473.175	860.6
473.568	862.2
473.982	856.2
474.397	869.8
474.79	856.4
475.204	872.2
475.619	858.8
476.033	855.6
476.426	853.6
476.841	838.8
477.256	886.2
477.649	845.8
478.064	849
478.479	850
478.872	848.6
479.287	834.4
479.702	846.8
480.118	845.8
480.511	842.2
480.927	839.4
481.342	838.6
481.736	841.2
482.151	833.2
482.566	840.8
482.96	833
483.376	834.6
483.792	817.2
484.186	838.4
484.602	831.2
485.017	826.4
485.412	833
485.827	830.4
486.243	834
486.638	847.4
487.054	830.2
487.47	836.6
487.865	819.6
488.281	830
488.697	815.8
489.092	810.6
489.508	807.6
489.925	819.4
490.32	796.6
490.736	824.6
491.153	802.8
491.548	817.2
491.964	814
492.381	796.6
492.776	802.4
493.193	796.6
493.61	798.2
494.006	798.2
494.422	807
494.84	784
495.235	797.8
495.652	791.4
496.069	786.8
496.465	782.8
496.883	789.4
497.3	805.6
497.696	779.6
498.113	800.2
498.509	766.8
498.927	773.4
499.344	774.6
499.741	771.4
500.158	782.4
500.576	785
500.973	772.8
501.39	757
501.787	757
502.205	762.6
502.623	766
503.02	744.6
503.438	750.4
503.856	762.6
504.253	765.6
504.671	763.6
505.068	750.8
505.486	745.4
505.905	767.8
506.302	750
506.72	748.2
507.118	746.6
507.536	748.2
507.955	754.2
508.352	738.6
508.771	750.8
509.169	740.6
509.587	730.6
510.006	727.6
510.404	720.4
510.823	722.4
511.221	726.6
511.64	727.2
512.038	744.8
512.457	718.8
512.877	725.6
513.275	719.6
513.694	718.4
514.092	723.2
514.512	714.4
514.91	722.6
515.33	717.4
515.749	718.8
516.148	721.4
516.568	713.2
516.966	706.4
517.386	702.4
517.785	702.2
518.205	699.6
518.603	700.6
519.024	689
519.444	705.4
519.843	711.6
520.263	698.4
520.662	702.8
521.082	703
521.481	687.8
521.902	693
522.301	693.8
522.722	694.4
523.121	695.4
523.542	691.2
523.963	698.6
524.362	692.8
524.783	692
525.183	686.2
525.604	694.6
526.003	685.8
526.425	674
526.824	680.2
527.246	683.8
527.646	690.4
528.067	685.2
528.467	677.6
528.888	685.6
529.289	675.2
529.71	677.6
530.11	673.2
530.532	665.2
530.932	664.4
531.354	662
531.755	691.6
532.176	678.8
532.577	668.6
532.999	665.8
533.4	657
533.822	665.4
534.223	666
534.645	654.2
535.046	651
535.468	662.4
535.869	672
536.292	658.8
536.693	684.6
537.115	659.6
537.516	656
537.939	652
538.34	677.6
538.742	672.2
539.165	653.4
539.566	648.8
539.989	653
540.391	650.2
540.814	663.2
541.216	653.4
541.639	651.8
542.041	661.4
542.464	648
542.866	644.2
543.268	643.4
543.691	660.2
544.093	652.2
544.517	664.4
544.919	645.4
545.343	678.4
545.745	635.8
546.147	646.8
546.571	640.4
546.974	637.4
547.398	639
547.8	647.6
548.224	632.6
548.627	626.2
549.03	646.2
549.454	632.8
549.857	627.6
550.281	626
550.684	631
551.087	647.6
551.512	637.2
551.915	638.4
552.34	630.4
552.743	628.4
553.146	639.6
553.571	628
553.975	646.8
554.399	616.6
554.803	676.2
555.207	622.8
555.632	620.6
556.036	639.8
556.461	622.2
556.865	634
557.268	622.4
557.694	619
558.098	631.6
558.502	633.6
558.927	619.8
559.332	625.6
559.736	622.8
560.162	623.4
560.566	617.4
560.992	628
561.396	617.4
561.801	623.4
562.227	619.8
562.631	623.4
563.036	630.2
563.462	631
563.867	612.6
564.272	608.8
564.698	621.4
565.103	611.4
565.508	641.2
565.935	621
566.34	608.6
566.745	632
567.172	612.8
567.577	633.6
567.982	628.4
568.409	611.4
568.815	611.8
569.22	610
569.626	617.8
570.053	594.2
570.459	616.4
570.865	624.6
571.292	615
571.698	614.6
572.104	600.6
572.531	605.4
572.937	624.8
573.343	618
573.75	606.8
574.177	617
574.583	613.2
574.99	599.6
575.396	600.6
575.824	606
576.231	618
576.637	598
577.065	630.2
577.472	596.6
577.879	603.6
578.286	620.6
578.714	600
579.121	604.2
579.528	592.8
579.935	608.6
580.364	600.4
580.771	587.2
581.178	596.6
581.585	611
582.014	607
582.421	594.4
582.829	590.8
583.236	606
583.644	590.6
584.073	597.8
584.481	597.2
584.889	599.4
585.296	602.8
585.726	600.2
586.134	587.8
586.542	593.4
586.95	610.8
587.358	591.4
587.787	604.6
588.196	600.4
588.604	593.6
589.012	600.4
589.421	588.8
589.851	589.4
590.259	596.6
590.668	590.2
591.076	622.8
591.485	586
591.894	591.8
592.324	602
592.733	600.2
593.142	582
593.551	587.4
593.96	620
594.369	585.2
594.8	584.4
595.209	599.2
595.618	577.8
596.028	585
596.437	583.2
596.847	600.2
597.256	590.2
597.687	593.2
598.097	598
598.507	584.4
598.917	592.2
599.327	589.2
599.736	602.2
600.146	606.6
600.556	597
600.988	602.8
601.398	596.2
601.808	591.2
602.219	585
602.629	584.2
603.039	587
603.45	614.8
603.86	590.8
604.271	596.6
604.703	597
605.114	589.2
605.525	597
605.935	596.6
606.346	602.8
606.757	588.6
607.168	591
607.579	580
607.99	593.6
608.402	591.2
608.813	590
609.224	583
609.636	577.4
610.047	583.6
610.48	587.8
610.892	601.2
611.303	590
611.715	592
612.127	580.4
612.539	581.4
612.95	591.2
613.362	577.2
613.774	578.6
614.186	574.6
614.599	578.4
615.011	587
615.423	583
615.835	579
616.248	580.2
616.66	587.8
617.073	585.4
617.485	579.8
617.898	595.8
618.311	585.4
618.723	588.8
619.136	617.2
619.549	595.2
619.962	608.2
620.375	580.6
620.788	585.4
621.201	585.6
621.614	592.8
622.028	584.2
622.441	595.2
622.854	601.8
623.268	577.8
623.681	594.4
624.095	591
624.509	598
624.922	587.4
625.336	575.8
625.728	586.2
626.142	596
626.556	608.2
626.97	592.8
627.384	592.6
627.799	584.8
628.213	593.2
628.627	586.4
629.041	586
629.456	583.4
629.87	583.6
630.285	590.4
630.699	596.8
631.093	591.4
631.507	593.2
631.922	587.4
632.337	594.6
632.752	573.8
633.167	595.4
633.582	583.6
633.997	587.4
634.412	574.2
634.806	590
635.221	582.6
635.637	595.6
636.052	575
636.468	592.4
636.883	603.6
637.299	579.4
637.715	574.6
638.109	584
638.525	569.4
638.941	598
639.357	588.6
639.773	589.6
640.189	579.6
640.584	584
641	588.6
641.416	569
641.832	580.4
642.249	582
642.665	578.6
643.06	594.8
643.477	590
643.894	565.4
644.31	586.4
644.727	586.8
645.123	583.2
645.54	575.2
645.957	590.4
646.374	587.4
646.77	587
647.187	610.4
647.604	582.6
648.021	579
648.439	575.8
648.835	589.4
649.252	584.6
649.67	577.2
650.088	593
650.484	586
650.902	585
651.32	591.8
651.738	578.4
652.134	585.6
652.552	599
652.971	593.4
653.389	582.8
653.786	598.2
654.204	603
654.622	576.6
655.019	582.4
655.438	578.4
655.857	585.2
656.275	588
656.673	574.2
657.091	589.6
657.51	576.6
657.908	586
658.327	590.4
658.746	569.6
659.144	583
659.563	593.6
659.982	581.8
660.38	570.8
660.8	573.4
661.219	596.6
661.617	580
662.037	577.6
662.457	589
662.855	569
663.275	602.8
663.695	576.8
664.094	576.4
664.514	582.4
664.934	569.2
665.333	584.6
665.753	571.8
666.152	567.8
666.572	572
666.993	593.4
667.392	581.2
667.812	574.4
668.212	573.4
668.632	584.8
669.053	573.4
669.453	573.6
669.874	582
670.273	585.4
670.694	571.6
671.116	592.6
671.515	589.8
671.937	581.8
672.337	579.6
672.758	577.4
673.158	578.6
673.58	566.2
673.98	579.4
674.402	588.6
674.824	576.6
675.224	558.2
675.646	568.2
676.047	573.6
676.469	579
676.869	576
677.292	578.6
677.693	566.2
678.115	573.2
678.516	586.6
678.939	573.2
679.34	577.8
679.762	589.2
680.164	580.4
680.586	564.6
680.988	577.8
681.411	602.2
681.812	571.8
682.236	563.2
682.637	568.2
683.061	575
683.462	576.8
683.864	573
684.288	580.2
684.69	563.6
685.114	585.8
685.516	587.2
685.94	574.8
686.342	581.8
686.766	571
687.168	564
687.571	591.2
687.995	574.6
688.398	568.2
688.822	574.4
689.225	593.8
689.628	589
690.052	579.6
690.456	583.8
690.88	573.6
691.284	566.6
691.687	578.4
692.112	566.2
692.515	564
692.919	580.2
693.344	573.8
693.747	573.2
694.173	564.6
694.577	586
694.98	578.6
695.406	574.8
695.81	575.2
696.214	573
696.64	580.8
697.044	583.6
697.448	583.2
697.874	573.8
698.279	578.2
698.684	565.4
699.11	570.6
699.514	576.2
699.919	570.6
700.324	573
700.75	580.2
701.156	576.2
701.561	583.6
701.987	582.2
702.393	579.4
702.798	589.4
703.203	574.6
703.63	577.6
704.036	574
704.442	570.6
704.847	573.4
705.274	576
705.68	581.4
706.086	583.2
706.492	566.2
706.92	577.6
707.326	583.6
707.732	575.8
708.139	569.4
708.545	563.6
708.973	570.8
709.38	576.2
709.786	565
710.193	586.8
710.6	565.2
711.028	562.6
711.435	569.4
711.842	570.4
712.249	577.4
712.656	566
713.064	571.6
713.492	568.6
713.9	566.2
714.307	568.6
714.715	568.6
715.123	575
715.53	579
715.938	581.6
716.367	577.2
716.775	573
717.184	569.6
717.592	575
718	584
718.408	596
718.816	612.8
719.225	573.2
719.633	575.6
720.042	563.8
720.472	573.2
720.881	592.6
721.29	583
721.699	564.6
722.108	579
722.517	582
722.926	570.2
723.335	577.2
723.744	571.2
724.154	580.4
724.563	580.8
724.973	574.8
725.382	572
725.792	570.8
726.202	564
726.612	587.2
727.022	574
727.432	565.8
779.813	571.2
780.223	615.8
780.634	559.4
781.044	566.2
781.454	571
781.865	587.8
782.276	559.2
782.686	583.8
783.097	568.2
783.508	566.2
783.919	577.2
784.33	579.2
784.741	583.6
785.152	567.2
785.563	560.2
785.974	565.6
786.386	578.6
786.776	561.6
787.188	571.4
787.599	562.6
788.011	581
788.423	565.6
788.835	576.2
789.247	557.6
789.659	571
790.071	567.6
790.483	613.2
790.874	568.2
791.286	586.6
791.699	578.2
792.111	575.6
792.524	577.4
792.937	569.6
793.349	562.4
793.741	572
794.154	569.8
794.567	580.2
794.98	571.6
795.393	571
795.785	580.2
796.198	569.6
796.612	573.2
797.026	567.8
797.439	551.6
797.831	564.4
798.245	565.4
798.659	570
799.073	568
799.487	564.6
799.88	575
800.294	572
800.708	583.4
801.123	580
801.516	581.6
801.93	565.4
802.345	557.6
802.76	579.2
803.153	580.8
803.568	590
803.983	570
804.377	571.8
804.792	556.8
805.207	561.4
805.601	572.4
806.016	592.8
806.432	565
806.826	595.4
807.242	581
807.658	577.8
808.052	566.4
808.468	574.4
808.884	564.8
809.279	575.2
809.695	575
810.111	594.8
810.506	569.4
810.922	589.6
811.339	574
811.734	583
812.151	567.4
812.546	571.8
812.963	565.6
813.38	580.4
813.776	571.8
814.193	580
814.589	569.6
815.006	567.6
815.402	571.4
815.82	564.8
816.237	567.2
816.633	578.4
817.051	570.4
817.448	575.8
817.866	564
818.262	588.6
818.68	567.6
819.077	564.2
819.495	577.2
819.892	606
820.311	564.4
820.708	564.4
821.127	566.2
821.524	575.8
821.943	569
822.34	583.6
822.759	570.2
823.157	568.4
823.576	581.8
823.974	576
824.393	587.2
824.791	576.2
825.189	568.4
825.609	558.2
826.007	572.4
826.427	555.8
826.826	567.8
827.246	573
827.644	551.6
828.043	581
828.463	566.2
828.862	577.4
829.261	573.8
829.682	557.6
830.081	571
830.502	555.6
830.901	572.2
831.301	578.6
831.722	558.6
832.121	566.2
832.521	558
832.943	561
833.342	567
833.742	558.4
834.164	562.6
834.564	555.6
834.965	576.6
835.386	562.2
835.787	567.8
836.188	567
836.588	567.4
837.01	567.6
837.411	558.6
837.812	570
838.213	574.2
838.636	572.4
839.037	623.8
839.438	564.8
839.84	574.4
840.263	574.8
840.664	570.4
841.066	569.4
841.468	578.6
841.891	564.4
842.293	579.2
842.695	577
843.098	572
843.5	564.6
843.902	575.2
844.326	573.4
844.729	568.4
845.131	578.8
845.534	574.8
845.937	581.6
846.34	586
846.764	555.2
847.167	567.4
847.571	562.4
847.974	574.8
848.377	571.6
848.781	604.6
849.184	584.6
849.588	566
849.992	564.8
850.396	570.6
850.821	590
851.225	579.8
851.63	567.4
852.034	586.8
852.438	581
852.843	634
853.247	572.6
853.652	559.6
854.057	585.8
854.462	564.4
854.867	573.2
855.272	588.4
855.677	575.6
856.082	561.2
856.487	555.8
856.893	561.8
857.298	562
857.704	565.4
858.11	568.6
858.516	578.8
858.922	574.6
859.328	573.4
859.734	566.4
860.14	574.6
860.525	574.6
860.931	562.8
861.338	562.8
861.745	571.6
862.151	577
862.558	567.2
862.965	561.4
863.372	564.4
863.779	568.6
864.186	585.2
864.572	574.2
864.98	578.2
865.387	590.2
865.795	561.6
866.203	576
866.61	565.6
867.018	583.2
867.405	576.8
867.813	570.8
868.221	572.8
868.63	567
869.038	575.6
869.425	614.8
869.834	570.6
870.243	562.4
870.652	568
871.039	564.4
871.448	566.6
871.857	574.8
872.266	573.8
872.654	568
873.064	562.8
873.473	567.4
873.883	572.2
874.271	557.8
874.681	579.2
875.091	558.2
875.48	569.4
875.89	583.6
876.3	566.6
876.689	552.6
877.1	569.2
877.51	565.8
877.9	590
878.31	570
878.721	603.4
879.111	570.2
879.522	566.8
879.933	564
880.323	553.6
880.734	561.6
881.125	565.4
881.536	567.8
881.948	561.6
882.338	566.8
882.75	578.8
883.141	562.6
883.553	572.6
883.944	589.8
884.356	575.6
884.769	566.2
885.16	569
885.573	576.6
885.964	560.4
886.377	573.8
886.768	561.8
887.181	572.2
887.573	559.8
887.987	567.2
888.378	573.8
888.792	573.8
889.184	602.8
889.598	561.4
889.99	572.4
890.383	570.4
890.797	563.4
891.19	580
891.604	556.6
891.997	554.6
892.411	561
892.805	560.6
893.198	557
893.613	562.2
894.006	566.6
894.421	558.2
894.815	564.4
895.209	571.4
895.624	612.4
896.018	580.8
896.412	568.4
896.828	563.2
897.222	569.8
897.617	572.2
898.033	586
898.427	563
898.822	565.4
899.239	559.4
899.634	561.6
900.029	583.4
900.424	562.2
900.841	562.2
901.236	579.6
901.632	572.4
902.027	622.2
902.445	568
902.841	564
903.237	567
903.633	579.6
904.05	570.6
904.447	572.2
904.843	572.4
905.24	562.8
905.636	558.4
906.033	568.4
906.451	576.4
906.848	561.8
907.246	561.8
907.643	569.2
908.04	568.8
908.438	588
908.835	575
909.254	568.4
909.652	577.4
910.05	569.6
910.448	559.2
910.846	560.6
911.244	552
911.643	567.6
912.041	567.4
912.44	583.4
912.839	564.6
913.237	560.6
913.636	561.4
914.035	570.6
914.434	552.6
914.834	575.8
915.233	575.6
915.633	559.4
916.032	557.6
916.432	562.6
916.832	574.4
917.232	564
917.632	556
918.032	571
918.432	561
918.833	556.6
919.233	560.8
919.634	553
920.035	565.6
920.436	565.8
920.837	564.2
921.238	559.8
921.639	563.4
922.019	561.4
922.42	565.2
922.822	573
923.224	566.4
923.625	568.8
924.027	564.4
924.429	586.8
924.81	574.6
925.212	573
925.615	569
926.017	565.6
926.42	578.4
926.801	568.6
927.204	563
927.607	572.8
928.01	577.6
928.413	564.8
928.795	552.6
929.199	562.6
929.602	553.8
930.006	558.2
930.388	552
930.792	569.4
931.196	565.6
931.579	595.8
931.983	559.4
932.388	601
932.771	562
933.176	555.2
933.58	570.4
933.964	576.4
934.369	568.6
934.774	573.4
935.158	561.6
935.563	580.2
935.947	567.2
936.353	570
936.759	568.4
937.143	567.6
937.549	568.2
937.934	569.2
938.34	579.4
938.746	560
939.131	563.2
939.538	567
939.923	571.4
940.33	558.2
940.716	570.8
941.123	578
941.508	566.4
941.916	584.6
942.302	564
942.709	561.4
943.096	563.8
943.503	574.8
943.89	566
944.298	562
944.685	584.8
945.072	565.6
945.48	582.8
945.867	561.4
946.276	568.6
946.663	589
947.051	584
947.46	575.4
947.848	569.4
948.257	560.4
948.645	573
949.033	558
949.443	557.6
949.831	593.2
950.22	550.4
950.63	571
951.018	587.6
951.407	572.8
951.796	557
952.207	567.6
952.596	567.4
952.985	559
953.375	601.2
953.786	557.8
954.176	551.6
954.566	567.2
954.956	553.2
955.367	556.8
955.758	585.4
956.148	548.4
956.539	566.8
956.929	562.6
957.341	555.6
957.732	565
958.123	570
958.515	562
958.906	562.4
959.297	560.4
959.689	560.8
960.102	559.4
960.494	569.2
960.886	566.4
961.278	558.6
961.67	579.4
962.062	598.8
962.455	564.2
962.847	560.6
963.24	560.2
963.633	569.2
964.026	558.8
964.419	567.2
964.812	568.2
965.206	564.4
965.599	566.4
965.993	562.4
966.386	565.8
966.78	570
967.174	577
967.569	564.8
967.963	555.2
968.357	549.4
968.752	554.8
969.146	564
969.541	566
969.936	554.2
970.331	567.8
970.705	562.6
971.1	556.4
971.496	570.4
971.892	555.6
972.287	563.2
972.683	559.2
973.079	560.4
973.454	583.2
973.85	557
974.247	567.6
974.643	587
975.04	569
975.415	567.6
975.812	565
976.209	573
976.607	559
976.982	577.6
977.38	576.4
977.778	563.8
978.175	563.4
978.552	569
978.95	563.6
979.348	576.2
979.725	613.6
980.123	567.2
980.522	562.4
980.899	555
981.298	562.6
981.697	570
982.075	563
982.474	567
982.852	565.4
983.251	567
983.651	560
984.029	570.4
984.429	564.8
984.808	554.2
985.208	552
985.609	551.6
985.987	557.6
986.388	558.8
986.768	575.2
987.168	563.8
987.548	567
987.949	567.2
988.329	568.4
988.731	553.2
989.111	565
989.491	563.4
989.893	562.2
990.273	571.6
990.676	553.4
991.057	555
991.459	559.4
991.84	561.6
992.221	556.8
992.624	584.8
993.006	567.4
993.388	566.4
993.791	568.4
994.173	568
994.576	602.4
994.959	558.8
995.341	555.6
995.724	564.2
996.128	563.4
996.511	568
996.894	557
997.298	554.6
997.681	569.6
998.065	569.2
998.448	561.4
998.854	568.6
999.237	560.6
999.621	582.2
1000.01	586.2
1000.39	561
1000.8	560.6
1001.18	567
1001.56	577.4
1001.95	568.8
1002.33	574
1002.72	568.2
1003.13	563
1003.51	558
1003.9	555.8
1004.28	573.2
1004.67	557.2
1005.06	565
1005.44	593.2
1005.83	558.4
1006.21	559.8
1006.6	557
1006.99	575.2
1007.37	569.4
1007.76	559.4
1060.12	551
1060.51	550.8
1060.89	559
1061.28	571.8
1061.67	567.4
1062.06	564.6
1062.45	564.4
1062.83	556.8
1063.22	571.2
1063.61	594.6
1064	565.2
1064.39	562.4
1064.78	558.4
1065.14	569.2
1065.53	560.4
1065.92	559.6
1066.31	561.2
1066.7	567.4
1067.09	579
1067.46	573
1067.85	569.6
1068.24	557.6
1068.63	572.8
1069.02	558.8
1069.39	569
1069.78	558.2
1070.17	567.4
1070.57	558.4
1070.93	560.6
1071.33	562.2
1071.72	564.2
1072.11	556
1072.48	556.8
1072.87	560.2
1073.26	558.8
1073.64	557.2
1074.03	553.8
1074.4	555.2
1074.79	562.6
1075.19	560.2
1075.56	564.2
1075.95	560.8
1076.34	560
1076.72	567.4
1077.11	565.8
1077.48	573.8
1077.88	562.8
1078.25	565.2
1078.64	569.2
1079.02	568
1079.41	568.6
1079.78	560.4
1080.18	558.6
1080.55	615.2
1080.95	561.2
1081.32	559
1081.72	566.8
1082.09	558.4
1082.49	555
1082.86	559.6
1083.24	548.4
1083.63	557.6
1084.01	565.2
1084.38	570.4
1084.78	556.6
1085.16	560.2
1085.55	580.8
1085.93	581.6
1086.31	564
1086.7	586
1087.08	567.4
1087.46	561.4
1087.83	553.6
1088.23	572.8
1088.61	566.2
1088.99	563.6
1089.36	567.2
1089.76	562.8
1090.14	565.8
1090.52	561.6
1090.9	560.4
1091.27	570
1091.67	579.2
1092.05	567.6
1092.43	559.8
1092.81	575.6
1093.19	566.6
1093.57	550.6
1093.95	563.4
1094.35	571.8
1094.73	574.6
1095.11	556.8
1095.49	552
1095.87	550.6
1096.25	567
1096.63	572.6
1097.01	555.8
1097.39	563.6
1097.77	565.4
1098.15	561.2
1098.53	551.4
1098.91	563.2
1099.29	556.2
1099.68	579.8
1100.06	575.8
1100.44	562
1100.82	569.4
1101.18	567.2
1101.56	549.6
1101.95	564.4
1102.33	561.6
1102.71	570.6
1103.1	564.8
1103.48	551.4
1103.86	554.2
1104.22	565.4
1104.61	564
1104.99	561.6
1105.38	545.2
1105.76	555.2
1106.12	558.2
1106.51	592
1106.89	565.6
1107.26	569.6
1107.64	575.2
1108.03	559.8
1108.41	562
1108.78	562.4
1109.16	562.4
1109.55	567.8
1109.91	548.2
1110.3	547.6
1110.69	566.8
1111.05	561.4
1111.44	558.4
1111.8	561.2
1112.19	562
1112.58	556
1112.94	554.6
1113.33	561.6
1113.7	548.2
1114.09	550.4
1114.45	559.2
1114.84	565
1115.21	567.4
1115.6	555.6
1115.96	563.4
1116.35	566
1116.72	555
1117.11	571.8
1117.48	553
1117.85	562.8
1118.24	571.6
1118.6	558.2
1118.99	555
1119.36	577
1119.73	569.2
1120.12	562.6
1120.49	548.6
1120.86	569.6
1121.25	557.8
1121.62	554.6
1121.99	559.8
1122.38	574.8
1122.76	560.8
1123.13	553.4
1123.5	558.4
1123.89	570.8
1124.26	553.2
1124.63	560
1125	564.8
1125.4	561.6
1125.77	558.8
1126.14	550.6
1126.51	559.6
1126.88	561.2
1127.26	557.2
1127.63	551.2
1128.02	558.2
1128.4	550.4
1128.77	554.6
1129.14	562.4
1129.52	568
1129.89	567.6
1130.26	557
1130.64	556.8
1131.01	560.2
