#lambda/nm	C1
208.295	533.8
208.67	482.2
209.045	442.8
209.419	444.4
209.794	613.2
210.169	592.2
210.544	709.8
210.919	617.4
211.295	602.8
211.67	613.6
212.045	604.2
212.421	603.8
212.796	648.8
213.172	599.6
213.547	603.2
213.923	604
214.299	596
214.675	614.2
215.051	603.8
215.427	622
215.803	630.4
216.179	616.2
216.555	601.8
216.932	619.8
217.308	611.2
217.684	604.8
218.061	620.4
218.438	617
218.814	601.8
219.191	613.4
219.568	598.2
219.945	605.4
220.322	608
220.699	616.8
221.076	612.6
221.453	614.8
221.83	600.2
222.208	601.6
222.585	607.2
222.962	603.4
223.34	615.8
223.717	607.2
224.095	609
224.473	610.8
224.851	604.6
225.229	596.4
225.607	614.8
225.985	607.8
226.363	604
226.741	604.4
227.119	612.2
227.497	613.6
227.876	595.6
228.254	614.8
228.633	607
229.011	604.4
229.39	615.2
229.769	610.4
230.148	623
230.527	631.6
230.905	617.2
231.284	612.2
231.664	604.8
232.043	623
232.422	610.4
232.801	600.2
233.181	614.4
233.56	607.2
233.94	605.8
234.319	595.8
234.699	608.8
235.079	645.6
235.458	635.6
235.838	624
236.218	609
236.598	604.4
236.978	596
237.358	606.6
237.738	605.8
238.119	616.8
238.499	603
238.88	604.8
239.26	621.8
239.641	595.4
240.021	602.8
240.402	610.4
240.783	607.8
241.163	604.8
241.544	608.8
241.925	616.6
242.306	617.4
242.687	614.8
243.069	605
243.45	613.2
243.831	607.6
244.212	603.6
244.594	652
244.975	613.8
245.357	612.8
245.739	604.6
246.12	611.6
246.502	614.2
246.884	607
247.266	601.8
247.648	608
248.03	635.2
248.412	616.2
248.794	610.4
249.176	609.2
249.559	625.2
249.941	594.4
250.323	600.4
250.706	610.6
251.089	607.4
251.471	614.2
251.854	609.6
252.237	605.4
252.62	615.2
253.002	607.8
253.385	611.4
253.769	628
254.152	604
254.535	613.8
254.918	596.4
255.301	607.6
255.685	599.2
256.068	599
256.452	625.4
256.835	614.4
257.219	614.4
257.603	621.2
257.986	589
258.37	619.8
258.754	598.4
259.138	611.6
259.522	620.4
259.906	605.6
260.29	605
260.675	604.6
261.059	611
261.443	598
261.828	617.6
262.212	606.2
262.597	592.2
262.981	597
263.366	607.6
263.751	606
264.136	593.8
264.521	600.4
264.906	597.2
265.291	618.2
265.676	597.8
266.061	612.6
266.446	620
266.831	611.8
267.217	624.4
267.602	611.6
267.987	620.6
268.373	605.2
268.759	626.2
269.144	617.8
269.53	605
269.916	601.2
270.302	606.6
270.688	618
271.074	618.2
271.46	618.8
271.846	630.4
272.232	619
272.618	605.8
273.004	609.6
273.391	614.4
273.777	619.4
274.164	612.4
274.55	630.2
274.937	609
275.324	608.8
275.71	613
276.097	616.2
276.484	606.2
276.871	612
277.258	611.8
277.645	599.8
278.032	611.4
278.419	595.6
278.807	606.6
279.194	604
279.581	605
279.969	613
280.356	609.6
280.744	608.4
281.131	631.2
281.519	611.8
281.907	605.4
282.295	600.4
282.682	611.2
283.07	606
283.458	611
283.846	619.8
284.235	622.2
284.623	617.6
285.011	595.6
285.399	618
285.788	607.8
286.176	601
286.565	620
286.953	609.2
287.342	611.4
287.731	603.8
288.119	596.4
288.508	604.6
288.897	606.6
289.286	595.4
289.675	604
290.064	621.8
290.453	602.6
290.821	602.4
291.21	619.6
291.599	603.4
291.989	602
292.378	612
292.768	624.4
293.157	618.8
293.547	609
293.936	610.2
294.326	600.2
294.716	612.8
295.106	606.2
295.496	618.6
295.886	616.2
296.276	611.2
296.666	604.4
297.056	604.6
297.446	597.8
297.836	621.6
298.227	605.2
298.617	614
299.008	618.4
299.398	606.6
299.789	608.2
300.179	608.4
300.57	619
300.961	609.8
301.352	604.8
301.742	616.2
302.133	607.6
302.524	609
302.915	606
303.307	596.6
303.698	617.2
304.089	612
304.48	611.2
304.872	610.2
305.263	611.8
305.655	599.4
306.046	616.2
306.438	609.6
306.829	604.4
307.221	620.2
307.613	619.6
308.005	625.2
308.397	620
308.789	628.2
309.181	637.4
309.573	620.6
309.965	622.8
310.357	612.2
310.749	623.6
311.142	608.6
311.534	599.4
311.926	612.2
312.319	610
312.711	600.2
313.104	626.6
313.497	615.4
313.889	648.2
314.282	618.4
314.675	633
315.068	616.4
315.461	618.8
315.854	634.6
316.247	617.2
316.64	609.6
317.033	617.6
317.405	618
317.798	615.4
318.192	609.8
318.585	603.6
318.979	618.6
319.372	600.2
319.766	604.4
320.16	618.8
320.553	621.8
320.947	629.8
321.341	604.2
321.735	612
322.129	599.8
322.523	632.2
322.917	598.2
323.311	613.6
323.705	607.8
324.099	614.8
324.494	628.2
324.888	612.8
325.282	603.6
325.677	625.2
326.071	618.8
326.466	618.6
326.861	616
327.255	618.2
327.65	620.2
328.045	621.6
328.44	613
328.835	610
329.23	602.8
329.625	629.8
330.02	604.6
330.415	636.4
330.81	614.6
331.206	611.4
331.601	598.6
331.996	619.8
332.37	627
332.766	602.4
333.161	633.2
333.557	605.6
333.953	613.2
334.348	922.6
334.744	613.4
335.14	605.4
335.536	614.8
335.932	619.6
336.328	610.6
336.724	620.4
337.12	608.4
337.516	610.8
337.913	606
338.309	630
338.705	608.8
339.102	621.2
339.498	611.4
339.895	631.2
340.291	615
340.688	614.8
341.085	597.4
341.481	612
341.878	602.6
342.275	635.6
342.672	603.6
343.069	602.2
343.466	606.4
343.842	609.8
344.239	603.2
344.636	609.4
345.033	602.8
345.431	603.4
345.828	610.4
346.225	606.8
346.623	639
347.02	605
347.418	620.4
347.816	616.8
348.213	597.2
348.611	616.2
349.009	602.6
349.407	621.2
349.805	593.6
350.203	596
350.601	628
350.999	607.2
351.397	670
351.795	604.8
352.193	612
352.57	613.2
352.969	619.2
353.367	597.2
353.766	603
354.164	606
354.563	611.6
354.961	604.2
355.36	599.2
355.759	604
356.158	600
356.557	592.2
356.956	600.2
357.355	596.4
357.754	604.8
358.153	612.4
358.552	620.6
358.951	600.8
359.35	614.4
359.75	594
360.149	595
360.527	588.2
360.926	599.8
361.326	598.2
361.726	603
362.125	591
362.525	610.2
362.925	603.6
363.325	603
363.724	611.4
364.124	602.2
364.524	601.6
364.924	604.6
365.324	613
365.725	585.8
366.125	609.2
366.525	601.6
366.904	602.2
367.304	591.8
367.705	621.6
368.105	611
368.506	603.4
368.906	607
369.307	603
369.708	608.8
370.108	594.4
370.509	616
370.91	600.6
371.311	604.4
371.712	602.2
372.113	609.8
372.514	594.2
372.894	602.8
373.295	599
373.696	609
374.097	614.4
374.499	626
374.9	605.6
375.301	596.8
375.703	610.8
376.105	594.6
376.506	604.6
376.908	600.4
377.309	603.2
377.711	600.4
378.113	597.4
378.493	601.4
378.895	596
379.297	609.2
379.699	590.8
380.102	604.2
380.504	603.2
380.906	599.8
381.308	623.4
381.71	594.6
382.113	607.6
382.515	599.8
382.918	597.8
383.299	600.6
383.701	609
384.104	603.4
384.507	582.8
384.909	605.2
385.312	588
385.715	586
386.118	603.4
386.521	591
386.924	614.6
387.327	589.8
387.709	590.6
388.112	591
388.515	598.6
388.918	601
389.322	604.4
389.725	590.2
390.129	623
390.532	604.6
390.936	598.4
391.339	594
391.743	600.2
392.125	589.8
392.529	611.8
392.933	621.4
393.337	599
393.74	600
394.144	604.4
394.548	590.6
394.953	597.2
395.357	606.8
395.761	596.6
396.144	600.8
396.548	592
396.952	602.2
397.357	596.6
397.761	589.8
398.166	604.8
398.57	599.8
398.975	587.6
399.379	602.4
399.763	641.4
400.168	599.2
400.572	604.2
400.977	602.4
401.382	620.4
401.787	603.2
402.192	604.2
402.597	619.8
403.002	590.4
403.386	613.6
403.791	612.6
404.197	603.2
404.602	606.8
405.007	605.2
405.413	598.2
405.818	607.8
406.224	596.8
406.608	598.6
407.014	589.4
407.42	621.4
407.825	590.4
408.231	605.4
408.637	605
409.043	621
409.449	603
409.834	601.4
410.24	600.2
410.646	612.2
411.052	612
411.458	601.4
411.865	604.4
412.271	615.8
412.677	610
413.062	610.6
413.469	591.4
413.875	631.4
414.282	612.8
414.689	598.6
415.095	606.6
415.502	593.4
415.888	593.2
416.294	581.8
416.701	643.6
417.108	593.6
417.515	603
417.923	604.4
418.33	613.2
418.715	607.6
419.123	604
419.53	602.4
419.937	601.2
420.345	616.2
420.752	599.6
421.16	615.4
421.546	599
421.953	616
422.361	595.8
422.769	599.4
423.177	599.4
423.585	622.8
423.992	623.4
424.379	601.2
424.787	625.4
425.195	625.2
425.603	602.6
426.011	621.8
426.419	621
426.806	606.6
427.214	607.6
427.623	614
428.031	607
428.44	605.4
428.848	626.6
429.235	617.2
429.644	604.6
430.053	611.8
430.461	623.2
430.87	635.4
431.279	627.6
431.666	606.4
432.075	609
432.484	621.4
432.893	619.6
433.302	643.4
433.711	667.4
434.099	638.6
434.508	631.2
434.918	635.8
435.327	645.4
435.737	647.6
436.125	656.6
436.534	658.2
436.944	667.6
437.353	669
437.763	685.4
438.173	667.8
438.561	680.4
438.971	667.8
439.381	686.6
439.791	698.4
440.201	675
440.589	702.4
440.999	704
441.409	715.8
441.819	700.6
442.23	725.8
442.619	736.6
443.029	728.4
443.439	726.4
443.85	736.8
444.26	747.8
444.649	731.4
445.06	742.4
445.471	729
445.881	739.6
446.292	752.8
446.682	767.6
447.092	730
447.503	790
447.914	749.6
448.325	753.2
448.715	752.6
449.126	753.8
449.537	754.2
449.948	753.8
450.338	758.4
450.75	768.8
451.161	765.2
451.572	767.8
451.984	760.8
452.374	744.8
452.786	757.2
453.197	756
453.609	764.6
453.999	747.6
454.411	761.4
454.823	779
455.235	767.2
455.647	765.2
456.037	768.2
456.449	758.8
456.862	763
457.274	774.6
457.665	761.4
458.077	771.4
458.489	802.8
458.902	765
459.293	775.4
459.705	780
460.118	766.2
460.53	779.4
460.921	764.8
461.334	770.6
461.747	764.4
462.16	781.8
462.551	778
462.964	793
463.377	759.8
463.79	769.6
464.182	786.6
464.595	772
465.008	774.2
465.421	780
465.813	764.8
466.226	775.8
466.64	782.4
467.053	818.6
467.445	787.6
467.859	790.6
468.272	791.2
468.686	787.6
469.078	774.2
469.492	775.4
469.906	776.4
470.298	781.6
470.712	768
471.126	816.4
471.54	757.6
471.933	764.2
472.347	769.6
472.761	773.6
473.175	768
473.568	769.2
473.982	767
474.397	765.6
474.79	774.6
475.204	776.6
475.619	771.2
476.033	772
476.426	770.4
476.841	757.8
477.256	785.6
477.649	752.8
478.064	759
478.479	753.6
478.872	757
479.287	744
479.702	751.8
480.118	755.2
480.511	759.4
480.927	761.8
481.342	756.6
481.736	755.8
482.151	753.6
482.566	768.2
482.96	749
483.376	762.4
483.792	751.8
484.186	752.4
484.602	751.4
485.017	750.6
485.412	746.4
485.827	748.6
486.243	748.8
486.638	776
487.054	754.6
487.47	764.6
487.865	737.2
488.281	743.4
488.697	744.6
489.092	746.8
489.508	736.4
489.925	753.8
490.32	741
490.736	747.4
491.153	738.6
491.548	742.4
491.964	748.8
492.381	730.6
492.776	732.2
493.193	723.2
493.61	736.2
494.006	726.4
494.422	743
494.84	711.4
495.235	742.4
495.652	724.8
496.069	724.4
496.465	711.4
496.883	725.4
497.3	742.6
497.696	725
498.113	723.2
498.509	713.2
498.927	711.4
499.344	706.2
499.741	711.2
500.158	734.2
500.576	726
500.973	714.6
501.39	699.8
501.787	710.4
502.205	709.4
502.623	705
503.02	699.6
503.438	697.6
503.856	708.6
504.253	710.6
504.671	702.4
505.068	703.2
505.486	700.6
505.905	713.8
506.302	709
506.72	712.4
507.118	695.2
507.536	697
507.955	694.6
508.352	698.6
508.771	699
509.169	709
509.587	689
510.006	695.2
510.404	677.2
510.823	681
511.221	677
511.64	678.6
512.038	694
512.457	682
512.877	678
513.275	678.6
513.694	672.4
514.092	672.2
514.512	681.6
514.91	688.2
515.33	677.4
515.749	677.6
516.148	679.8
516.568	672.8
516.966	670.8
517.386	666.6
517.785	680.8
518.205	668.2
518.603	666.6
519.024	655.2
519.444	662
519.843	675.6
520.263	676.2
520.662	664.2
521.082	672.2
521.481	663.6
521.902	660.8
522.301	669.4
522.722	659.4
523.121	668.6
523.542	661.6
523.963	649.8
524.362	654.8
524.783	662.4
525.183	662.2
525.604	663
526.003	656.2
526.425	656.2
526.824	662.6
527.246	661.6
527.646	658.4
528.067	658.2
528.467	651.8
528.888	657.8
529.289	655
529.71	650.8
530.11	643.8
530.532	652
530.932	639.2
531.354	648.2
531.755	670.8
532.176	649.8
532.577	649.8
532.999	645.4
533.4	639.4
533.822	658
534.223	651.8
534.645	645.4
535.046	642
535.468	642.8
535.869	661.2
536.292	642.6
536.693	676.4
537.115	651.4
537.516	642
537.939	632.2
538.34	646.4
538.742	645
539.165	634
539.566	637.6
539.989	639.2
540.391	636.4
540.814	640.8
541.216	640.4
541.639	639
542.041	649.6
542.464	636.2
542.866	628.2
543.268	628
543.691	639.6
544.093	644.2
544.517	644.2
544.919	629.4
545.343	658
545.745	623.2
546.147	632.4
546.571	627.4
546.974	620.4
547.398	624.2
547.8	639.2
548.224	628.8
548.627	624.8
549.03	622.4
549.454	622
549.857	611.8
550.281	613.2
550.684	612
551.087	625.6
551.512	619.4
551.915	626.8
552.34	625.8
552.743	617.8
553.146	617.2
553.571	617.6
553.975	633.2
554.399	620.8
554.803	662.6
555.207	620.2
555.632	620.2
556.036	621.8
556.461	610.4
556.865	617.4
557.268	613.8
557.694	609.6
558.098	629.4
558.502	629.4
558.927	607
559.332	621.4
559.736	622.4
560.162	625
560.566	615.4
560.992	614.8
561.396	610.6
561.801	615
562.227	622.4
562.631	609
563.036	619.8
563.462	621.6
563.867	618.6
564.272	610.8
564.698	618.4
565.103	605.2
565.508	634
565.935	615.4
566.34	615.4
566.745	619.6
567.172	612.2
567.577	629.4
567.982	616.4
568.409	617.8
568.815	600
569.22	612.4
569.626	610.6
570.053	599.4
570.459	612.2
570.865	616
571.292	616
571.698	608.6
572.104	598.6
572.531	604.4
572.937	615
573.343	604
573.75	599.4
574.177	603.4
574.583	613.2
574.99	600.4
575.396	613.8
575.824	603.8
576.231	617.8
576.637	606
577.065	636.2
577.472	596.4
577.879	598.4
578.286	615.2
578.714	603.4
579.121	601.4
579.528	607.2
579.935	614.8
580.364	598.4
580.771	583
581.178	602.4
581.585	607.6
582.014	608.2
582.421	605.2
582.829	604.6
583.236	607.8
583.644	597.8
584.073	599.4
584.481	603.2
584.889	586
585.296	601.8
585.726	603.4
586.134	597.2
586.542	603
586.95	618
587.358	581.8
587.787	602.2
588.196	607.2
588.604	596.2
589.012	596.4
589.421	598.2
589.851	593.8
590.259	597.2
590.668	600.2
591.076	633.2
591.485	591.4
591.894	596.2
592.324	600.4
592.733	610.6
593.142	586.2
593.551	589.6
593.96	623.2
594.369	586.8
594.8	587.6
595.209	586.6
595.618	578
596.028	590.4
596.437	584.6
596.847	600.6
597.256	595.8
597.687	594.4
598.097	592.6
598.507	587.2
598.917	595.6
599.327	606.4
599.736	598.2
600.146	597.8
600.556	601
600.988	599.6
601.398	594.8
601.808	600.6
602.219	581.4
602.629	595.4
603.039	598.8
603.45	614
603.86	594.2
604.271	610.4
604.703	598.2
605.114	594.4
605.525	595.4
605.935	594
606.346	613.2
606.757	597.2
607.168	593.4
607.579	591
607.99	600.8
608.402	590.8
608.813	606.4
609.224	589.2
609.636	582.8
610.047	588.8
610.48	595.8
610.892	595.4
611.303	597.4
611.715	588.2
612.127	575.2
612.539	588.8
612.95	590
613.362	580.6
613.774	585.4
614.186	590.4
614.599	589.4
615.011	599.6
615.423	589.4
615.835	578
616.248	583.8
616.66	598.4
617.073	576.2
617.485	584
617.898	603.2
618.311	594.6
618.723	589.6
619.136	614.8
619.549	606
619.962	612
620.375	592
620.788	593.2
621.201	589.6
621.614	602.4
622.028	582.6
622.441	588.4
622.854	599
623.268	580
623.681	591.2
624.095	585.4
624.509	596.2
624.922	597.2
625.336	575.8
625.728	594.8
626.142	597.4
626.556	602.2
626.97	594.8
627.384	588.6
627.799	586.6
628.213	590.8
628.627	587.8
629.041	587
629.456	586.6
629.87	590.4
630.285	609.2
630.699	590.8
631.093	593.4
631.507	594
631.922	591
632.337	601
632.752	579.8
633.167	597.2
633.582	585.6
633.997	584.6
634.412	585
634.806	591.8
635.221	580.6
635.637	601
636.052	578
636.468	584
636.883	601.2
637.299	587.2
637.715	576.4
638.109	593.6
638.525	579.6
638.941	597.4
639.357	594.8
639.773	592.4
640.189	582.6
640.584	586
641	588.4
641.416	574.4
641.832	589.2
642.249	582.2
642.665	584.2
643.06	593.2
643.477	593.4
643.894	581.4
644.31	585.4
644.727	582.4
645.123	590.6
645.54	580
645.957	578.8
646.374	597.2
646.77	583
647.187	608.8
647.604	584.6
648.021	569.4
648.439	573.6
648.835	578
649.252	586.2
649.67	581.4
650.088	592.2
650.484	582.6
650.902	588.2
651.32	587.8
651.738	582.2
652.134	591.6
652.552	594.6
652.971	593.4
653.389	588.6
653.786	598.6
654.204	604.2
654.622	589.4
655.019	584.8
655.438	586.6
655.857	587.4
656.275	583.2
656.673	583.6
657.091	586.4
657.51	584.2
657.908	597.2
658.327	597.6
658.746	578.8
659.144	589.8
659.563	601.2
659.982	589.4
660.38	579.4
660.8	584
661.219	596.2
661.617	590.4
662.037	587.2
662.457	596.2
662.855	581.2
663.275	619.6
663.695	583
664.094	589.6
664.514	592.6
664.934	582.4
665.333	594.2
665.753	578.8
666.152	575.2
666.572	582.4
666.993	594.4
667.392	579.2
667.812	579.6
668.212	585.6
668.632	590
669.053	581.6
669.453	594
669.874	592.4
670.273	588.6
670.694	575.6
671.116	594.6
671.515	587.4
671.937	573.2
672.337	585.8
672.758	576
673.158	593.8
673.58	581.4
673.98	588
674.402	600
674.824	591
675.224	587.2
675.646	574.2
676.047	579.6
676.469	589.2
676.869	586.4
677.292	581.2
677.693	569.8
678.115	579.8
678.516	586.8
678.939	582.6
679.34	577.2
679.762	594.2
680.164	588.2
680.586	583.8
680.988	583.4
681.411	611.8
681.812	578.8
682.236	574.4
682.637	583.8
683.061	572.4
683.462	589
683.864	578.8
684.288	602
684.69	569.4
685.114	602
685.516	591.6
685.94	576.8
686.342	584
686.766	571.6
687.168	578
687.571	604.4
687.995	582.2
688.398	575
688.822	586
689.225	599.8
689.628	599.8
690.052	579.6
690.456	586.2
690.88	583.4
691.284	580.4
691.687	585.6
692.112	582.6
692.515	576.6
692.919	582.4
693.344	585.2
693.747	587.4
694.173	578.8
694.577	596
694.98	580
695.406	578.2
695.81	580.6
696.214	585.4
696.64	584.6
697.044	581
697.448	593
697.874	572.4
698.279	581.4
698.684	574.2
699.11	573
699.514	578.2
699.919	579.2
700.324	579.6
700.75	586.2
701.156	576.2
701.561	585.4
701.987	586.2
702.393	585.6
702.798	597.6
703.203	582.8
703.63	580.6
704.036	580.2
704.442	584.2
704.847	569
705.274	589.2
705.68	593.4
706.086	589.8
706.492	564.6
706.92	580
707.326	585.2
707.732	587
708.139	577.4
708.545	572.4
708.973	579.6
709.38	579
709.786	564.2
710.193	596.4
710.6	583.2
711.028	574.8
711.435	571.8
711.842	581.4
712.249	573.6
712.656	576.8
713.064	593.6
713.492	572.8
713.9	576.6
714.307	591.6
714.715	581.6
715.123	576.6
715.53	583.8
715.938	584.4
716.367	583
716.775	587.2
717.184	570
717.592	576.8
718	585.2
718.408	610.4
718.816	628.6
719.225	582.2
719.633	577.2
720.042	577.2
720.472	583.2
720.881	591.2
721.29	581.6
721.699	576
722.108	581.2
722.517	575.8
722.926	579
723.335	593.4
723.744	577
724.154	581.6
724.563	579.4
724.973	587.6
725.382	579.4
725.792	574.6
726.202	580.6
726.612	600.4
727.022	581.2
727.432	576.6
779.813	580.6
780.223	628.2
780.634	579.8
781.044	572.8
781.454	578.6
781.865	588.8
782.276	581
782.686	592.6
783.097	577.2
783.508	584
783.919	584.8
784.33	596.6
784.741	583.4
785.152	573.6
785.563	564.8
785.974	572.6
786.386	581
786.776	573
787.188	581.4
787.599	578
788.011	590.8
788.423	586.2
788.835	582.4
789.247	577.4
789.659	575.2
790.071	575.4
790.483	614
790.874	570.6
791.286	583.4
791.699	573.8
792.111	585.6
792.524	582.2
792.937	581.4
793.349	567.2
793.741	578.4
794.154	567.4
794.567	589.2
794.98	571.2
795.393	565.6
795.785	593.2
796.198	573.2
796.612	582
797.026	574.8
797.439	562.8
797.831	572
798.245	565.4
798.659	574.8
799.073	569.6
799.487	574.6
799.88	572.4
800.294	579.8
800.708	571.4
801.123	574.6
801.516	602
801.93	569
802.345	560
802.76	580.2
803.153	587.8
803.568	587.8
803.983	595.2
804.377	585
804.792	568.4
805.207	564.6
805.601	582.2
806.016	612
806.432	567
806.826	609.8
807.242	593.8
807.658	580.6
808.052	579.2
808.468	582.2
808.884	574.6
809.279	572.6
809.695	590.6
810.111	602.2
810.506	587.6
810.922	596.6
811.339	572.6
811.734	587.4
812.151	572
812.546	573.4
812.963	577.4
813.38	589.2
813.776	579.2
814.193	599.6
814.589	566.8
815.006	575.8
815.402	570.4
815.82	573.2
816.237	582.4
816.633	581.6
817.051	566.8
817.448	579.6
817.866	570.8
818.262	601.8
818.68	569.2
819.077	573
819.495	581
819.892	613.4
820.311	573
820.708	571
821.127	576
821.524	583.8
821.943	582.8
822.34	594.4
822.759	580.8
823.157	576
823.576	590.8
823.974	588.2
824.393	599.4
824.791	567.4
825.189	568.2
825.609	579
826.007	575.2
826.427	570.6
826.826	576
827.246	582
827.644	556.8
828.043	593.4
828.463	576
828.862	584.4
829.261	585.8
829.682	569.2
830.081	589
830.502	579.8
830.901	584.8
831.301	595.8
831.722	572
832.121	576.6
832.521	570.6
832.943	578.4
833.342	581.2
833.742	569.8
834.164	582
834.564	566.6
834.965	575
835.386	575.4
835.787	568.8
836.188	581.8
836.588	572
837.01	576.4
837.411	566.6
837.812	576.6
838.213	584.4
838.636	573.2
839.037	645.6
839.438	573
839.84	578.8
840.263	579.8
840.664	580.4
841.066	574
841.468	575.4
841.891	576.4
842.293	585.8
842.695	580.4
843.098	576.8
843.5	579.8
843.902	584.4
844.326	586.4
844.729	584
845.131	588
845.534	574.2
845.937	585
846.34	585.6
846.764	571.8
847.167	578.2
847.571	565.4
847.974	574
848.377	569.4
848.781	620.8
849.184	595.6
849.588	570.6
849.992	570.4
850.396	576
850.821	593.2
851.225	576.6
851.63	576
852.034	586.2
852.438	575.8
852.843	647.8
853.247	567.8
853.652	567
854.057	582.6
854.462	580.8
854.867	579.2
855.272	608
855.677	583.4
856.082	570.8
856.487	564.8
856.893	577.2
857.298	569.8
857.704	567.8
858.11	579.2
858.516	580.6
858.922	575.2
859.328	581.2
859.734	570.6
860.14	578.8
860.525	573
860.931	572
861.338	568.8
861.745	585.2
862.151	587.4
862.558	576.4
862.965	574.6
863.372	567.4
863.779	567.6
864.186	593
864.572	581.6
864.98	595.8
865.387	602.6
865.795	568.8
866.203	588.6
866.61	561.2
867.018	579.8
867.405	573
867.813	575
868.221	577.6
868.63	573.2
869.038	586.6
869.425	612
869.834	576.8
870.243	566.4
870.652	563
871.039	575.4
871.448	570.8
871.857	581.2
872.266	578
872.654	578
873.064	574.8
873.473	585.6
873.883	574.6
874.271	568.6
874.681	586.2
875.091	557.8
875.48	580.6
875.89	594.4
876.3	572.2
876.689	562.8
877.1	574.2
877.51	575.6
877.9	583
878.31	571.2
878.721	606.6
879.111	575.8
879.522	575.4
879.933	576.2
880.323	571.8
880.734	573.6
881.125	581.2
881.536	579.2
881.948	573.2
882.338	579.8
882.75	582.4
883.141	578
883.553	581.4
883.944	599.8
884.356	585.8
884.769	579
885.16	573.6
885.573	572.8
885.964	571.4
886.377	582
886.768	570.2
887.181	572
887.573	562.8
887.987	579.6
888.378	590.6
888.792	575.2
889.184	618.2
889.598	573.2
889.99	571.4
890.383	572.4
890.797	560
891.19	573.8
891.604	565.8
891.997	567.2
892.411	563
892.805	564.4
893.198	577.2
893.613	562.4
894.006	573
894.421	562
894.815	575.2
895.209	564.4
895.624	607.8
896.018	585.8
896.412	577.2
896.828	577
897.222	582.4
897.617	574.2
898.033	591
898.427	578.2
898.822	571.6
899.239	570.6
899.634	573.8
900.029	589.4
900.424	570.4
900.841	560.2
901.236	575.2
901.632	584.8
902.027	630.2
902.445	588
902.841	576.4
903.237	573.4
903.633	586
904.05	581.4
904.447	582
904.843	581.4
905.24	571.6
905.636	566.2
906.033	574.6
906.451	577.6
906.848	571
907.246	580.2
907.643	574.4
908.04	580.6
908.438	587.2
908.835	570.4
909.254	570.8
909.652	574.2
910.05	576.4
910.448	572
910.846	569.8
911.244	561
911.643	574.8
912.041	573
912.44	588
912.839	566.2
913.237	568.6
913.636	560
914.035	577.2
914.434	573
914.834	587.4
915.233	585.4
915.633	574.6
916.032	571.2
916.432	570.2
916.832	582.4
917.232	580.8
917.632	562.6
918.032	573.8
918.432	574.8
918.833	574
919.233	571.2
919.634	564
920.035	575
920.436	569.4
920.837	580
921.238	568
921.639	572
922.019	572
922.42	581.6
922.822	578.6
923.224	573.2
923.625	573
924.027	567.2
924.429	594.6
924.81	573.6
925.212	574.4
925.615	582.6
926.017	574
926.42	581.8
926.801	575.4
927.204	576.2
927.607	589.2
928.01	591
928.413	572.4
928.795	568.4
929.199	569.6
929.602	567.6
930.006	565
930.388	564.4
930.792	574.2
931.196	571
931.579	601.6
931.983	560.8
932.388	620.6
932.771	570.4
933.176	565.2
933.58	566.2
933.964	577.2
934.369	567.8
934.774	575.2
935.158	570.8
935.563	569
935.947	567
936.353	580
936.759	579
937.143	574.6
937.549	575.4
937.934	590.6
938.34	588.8
938.746	571.4
939.131	571.4
939.538	575.4
939.923	573.8
940.33	566.2
940.716	575.2
941.123	572.4
941.508	586
941.916	592.2
942.302	583.4
942.709	565.4
943.096	565.6
943.503	579.2
943.89	570.2
944.298	567.2
944.685	595.6
945.072	570.6
945.48	581
945.867	566.2
946.276	560.4
946.663	591.8
947.051	590.8
947.46	579.6
947.848	580.2
948.257	562.8
948.645	574.6
949.033	572.8
949.443	567
949.831	608.2
950.22	566.8
950.63	578.4
951.018	606.2
951.407	566.4
951.796	561.4
952.207	578.4
952.596	569.6
952.985	566.6
953.375	611.2
953.786	571.6
954.176	569.2
954.566	579.8
954.956	570.8
955.367	568.2
955.758	591.4
956.148	562.8
956.539	587.4
956.929	561
957.341	565
957.732	561
958.123	576.8
958.515	564.8
958.906	583.8
959.297	566
959.689	574
960.102	566.6
960.494	570.2
960.886	570
961.278	573
961.67	585.2
962.062	609.4
962.455	567
962.847	559.6
963.24	575.4
963.633	570.8
964.026	572
964.419	568.6
964.812	577.4
965.206	572
965.599	574.6
965.993	565.8
966.386	569.6
966.78	585.4
967.174	585.4
967.569	566.2
967.963	568.8
968.357	564
968.752	562.8
969.146	572
969.541	566.2
969.936	565.8
970.331	566
970.705	576.2
971.1	572.2
971.496	574.6
971.892	568.2
972.287	569.8
972.683	574.8
973.079	570
973.454	584.4
973.85	574
974.247	575.6
974.643	603
975.04	572.8
975.415	583.2
975.812	563.6
976.209	578
976.607	560.2
976.982	584.4
977.38	586.6
977.778	574.2
978.175	565.8
978.552	564.6
978.95	577.4
979.348	580.6
979.725	617.2
980.123	569.4
980.522	564.6
980.899	562.6
981.298	559.4
981.697	562.4
982.075	561
982.474	563.8
982.852	566.4
983.251	570.6
983.651	573.2
984.029	570.6
984.429	568.6
984.808	559
985.208	568.2
985.609	557.2
985.987	557.6
986.388	561.4
986.768	572.8
987.168	570.6
987.548	580.4
987.949	575.8
988.329	578
988.731	556
989.111	565.8
989.491	561.4
989.893	573.8
990.273	574.6
990.676	561.4
991.057	561
991.459	574.8
991.84	564.4
992.221	560.8
992.624	589.2
993.006	574.8
993.388	570.8
993.791	574.8
994.173	579
994.576	605.2
994.959	559.4
995.341	569.4
995.724	571.6
996.128	568.2
996.511	577.4
996.894	563.2
997.298	576.8
997.681	579.6
998.065	569.6
998.448	566.8
998.854	577.4
999.237	561.8
999.621	579.4
1000.01	587
1000.39	573.8
1000.8	565.6
1001.18	581.2
1001.56	576
1001.95	581
1002.33	577
1002.72	567.8
1003.13	560
1003.51	572.8
1003.9	567.2
1004.28	577.6
1004.67	573.8
1005.06	568.2
1005.44	605.2
1005.83	553.2
1006.21	565
1006.6	563.4
1006.99	581.6
1007.37	575.2
1007.76	573.8
1060.12	562.8
1060.51	566.4
1060.89	568
1061.28	578.2
1061.67	576.6
1062.06	575.2
1062.45	567.2
1062.83	570.6
1063.22	580.4
1063.61	601.8
1064	568
1064.39	578.4
1064.78	573.6
1065.14	581.4
1065.53	581
1065.92	569.8
1066.31	563.2
1066.7	577.2
1067.09	583
1067.46	581
1067.85	575.4
1068.24	570
1068.63	571.8
1069.02	570.4
1069.39	584.6
1069.78	567.4
1070.17	568
1070.57	565.8
1070.93	570.8
1071.33	567.6
1071.72	566.6
1072.11	564.4
1072.48	567.2
1072.87	573.4
1073.26	571.4
1073.64	563
1074.03	559.8
1074.4	573
1074.79	567
1075.19	565.8
1075.56	572
1075.95	569.6
1076.34	571
1076.72	562
1077.11	571.4
1077.48	580.2
1077.88	575
1078.25	572.6
1078.64	573.8
1079.02	573.2
1079.41	578.2
1079.78	571.4
1080.18	563.4
1080.55	630
1080.95	564.4
1081.32	561
1081.72	571.8
1082.09	574.8
1082.49	561.4
1082.86	571.8
1083.24	559.2
1083.63	556.2
1084.01	569.6
1084.38	575.6
1084.78	567.8
1085.16	577.8
1085.55	582.4
1085.93	583
1086.31	561.6
1086.7	592.4
1087.08	579.6
1087.46	567.4
1087.83	555.8
1088.23	572.4
1088.61	569
1088.99	575.2
1089.36	561.6
1089.76	567.4
1090.14	562.4
1090.52	559.4
1090.9	564
1091.27	574.6
1091.67	598.8
1092.05	573
1092.43	566.6
1092.81	579.8
1093.19	580.8
1093.57	574.8
1093.95	565.2
1094.35	576
1094.73	579.6
1095.11	567.8
1095.49	575
1095.87	562.6
1096.25	590.2
1096.63	578
1097.01	569
1097.39	579.8
1097.77	571.8
1098.15	568
1098.53	561.4
1098.91	560.8
1099.29	566.6
1099.68	582
1100.06	577
1100.44	566.6
1100.82	576
1101.18	570.2
1101.56	564.2
1101.95	563.8
1102.33	566.2
1102.71	565.2
1103.1	559.4
1103.48	561.8
1103.86	563.6
1104.22	573.8
1104.61	562.2
1104.99	560
1105.38	567.2
1105.76	570.6
1106.12	572.6
1106.51	601
1106.89	583.6
1107.26	577.4
1107.64	577.4
1108.03	571.4
1108.41	567.8
1108.78	566.2
1109.16	568.4
1109.55	578
1109.91	561.6
1110.3	554.8
1110.69	586.2
1111.05	566.6
1111.44	570.6
1111.8	570.2
1112.19	570.2
1112.58	573
1112.94	563.4
1113.33	569
1113.7	560.6
1114.09	558.6
1114.45	558.8
1114.84	572.2
1115.21	570.6
1115.6	573.6
1115.96	570.4
1116.35	571.4
1116.72	560.6
1117.11	575.8
1117.48	563.6
1117.85	572
1118.24	579
1118.6	573.6
1118.99	565.8
1119.36	578.4
1119.73	565.8
1120.12	566.6
1120.49	555.6
1120.86	568
1121.25	571
1121.62	556.8
1121.99	565.4
1122.38	572.6
1122.76	560
1123.13	558
1123.5	568.4
1123.89	563.4
1124.26	555.2
1124.63	566.4
1125	566.6
1125.4	556.6
1125.77	560
1126.14	558.2
1126.51	567.8
1126.88	557
1127.26	562.2
1127.63	552
1128.02	567.8
1128.4	561.6
1128.77	564.4
1129.14	569
1129.52	570
1129.89	574.2
1130.26	567.6
1130.64	556
1131.01	567.2
