#lambda/nm	C1
208.295	560
208.67	501.6
209.045	462.8
209.419	454.4
209.794	593.2
210.169	573.4
210.544	685.8
210.919	593.8
211.295	584
211.67	590
212.045	591.6
212.421	583
212.796	615.2
213.172	583.2
213.547	586.2
213.923	584.4
214.299	571
214.675	588.8
215.051	582
215.427	585
215.803	597.2
216.179	587.2
216.555	580.2
216.932	590.8
217.308	577.8
217.684	582.8
218.061	595.6
218.438	592
218.814	576.4
219.191	591.4
219.568	576
219.945	575.6
220.322	585.8
220.699	590.4
221.076	595.2
221.453	587
221.83	582.2
222.208	580.4
222.585	580.6
222.962	581.2
223.34	585.2
223.717	583.2
224.095	582.6
224.473	584.6
224.851	586.2
225.229	570.4
225.607	587.6
225.985	576.6
226.363	585.4
226.741	582.8
227.119	592
227.497	591.6
227.876	569.2
228.254	592
228.633	585.6
229.011	586.8
229.39	581.6
229.769	580.6
230.148	582.2
230.527	594.2
230.905	586.2
231.284	586.6
231.664	576.6
232.043	595
232.422	592.4
232.801	581.8
233.181	595
233.56	580.2
233.94	587.2
234.319	578.8
234.699	584
235.079	614.2
235.458	612.2
235.838	598.6
236.218	575.2
236.598	577
236.978	577.4
237.358	580
237.738	578.6
238.119	590.4
238.499	576
238.88	580
239.26	601
239.641	579
240.021	582.8
240.402	578.8
240.783	579
241.163	580.8
241.544	584.2
241.925	583.8
242.306	598.4
242.687	583.8
243.069	584.4
243.45	586.6
243.831	583.6
244.212	573.4
244.594	607.8
244.975	584.2
245.357	576.6
245.739	574
246.12	585.8
246.502	588.8
246.884	577.8
247.266	582.8
247.648	587.8
248.03	606.4
248.412	585.2
248.794	587.2
249.176	576.6
249.559	594
249.941	581.8
250.323	578.4
250.706	576.6
251.089	585.8
251.471	580.2
251.854	589
252.237	582.6
252.62	591.4
253.002	580
253.385	586.4
253.769	595.8
254.152	581.8
254.535	584.6
254.918	584.6
255.301	587.2
255.685	582.6
256.068	579.6
256.452	609
256.835	591.4
257.219	590.2
257.603	592.4
257.986	582.2
258.37	587.8
258.754	575.6
259.138	586.6
259.522	599
259.906	585.6
260.29	587.2
260.675	579.6
261.059	584.8
261.443	577.6
261.828	585.6
262.212	585.6
262.597	578.2
262.981	581.8
263.366	593
263.751	585
264.136	580.6
264.521	578.8
264.906	578
265.291	592
265.676	586.2
266.061	595.2
266.446	591.2
266.831	576
267.217	597.6
267.602	594.8
267.987	586.8
268.373	585
268.759	592.2
269.144	586.8
269.53	581.8
269.916	578.2
270.302	578.6
270.688	590
271.074	578.6
271.46	592.8
271.846	602.8
272.232	589.8
272.618	582.2
273.004	577.8
273.391	591.2
273.777	595.2
274.164	582.4
274.55	596.4
274.937	588.4
275.324	586
275.71	594.4
276.097	586.2
276.484	583.4
276.871	587.8
277.258	588.8
277.645	571
278.032	588
278.419	581.4
278.807	590.6
279.194	580.4
279.581	578.4
279.969	589
280.356	580.6
280.744	587.8
281.131	608.6
281.519	595
281.907	583.6
282.295	582
282.682	597.8
283.07	586.2
283.458	597.2
283.846	587.4
284.235	591.4
284.623	592.8
285.011	577.2
285.399	591.6
285.788	585.4
286.176	573.2
286.565	591.8
286.953	583.6
287.342	578
287.731	570
288.119	569
288.508	579
288.897	578.6
289.286	577.4
289.675	583.8
290.064	590.2
290.453	576.2
290.821	586
291.21	597.6
291.599	580.8
291.989	586.4
292.378	590
292.768	599
293.157	588.2
293.547	589.6
293.936	582.4
294.326	579
294.716	585.6
295.106	581.2
295.496	592.2
295.886	599
296.276	584
296.666	579
297.056	587.6
297.446	579
297.836	592.8
298.227	585.6
298.617	589.2
299.008	596
299.398	587.6
299.789	580
300.179	590.4
300.57	600.2
300.961	581.4
301.352	580
301.742	589.6
302.133	582
302.524	582.2
302.915	584
303.307	577
303.698	600
304.089	590.4
304.48	585.4
304.872	594.2
305.263	577.8
305.655	568.8
306.046	590
306.438	590.8
306.829	578.2
307.221	595.6
307.613	589.4
308.005	589.8
308.397	589.8
308.789	598.2
309.181	603.2
309.573	601.6
309.965	596
310.357	579.4
310.749	595
311.142	583.8
311.534	574
311.926	586.2
312.319	583.8
312.711	584.4
313.104	591
313.497	584
313.889	617
314.282	595
314.675	610.6
315.068	595.2
315.461	577.8
315.854	607
316.247	581.6
316.64	585.8
317.033	584
317.405	584.2
317.798	584.6
318.192	587.2
318.585	580.2
318.979	581.6
319.372	577.2
319.766	583.2
320.16	598
320.553	587.6
320.947	594.8
321.341	583.6
321.735	584.4
322.129	579.4
322.523	603
322.917	573
323.311	592.8
323.705	591.8
324.099	584
324.494	598.8
324.888	594.2
325.282	584
325.677	606.4
326.071	598.8
326.466	597.2
326.861	585
327.255	594.6
327.65	599.8
328.045	597.2
328.44	593.6
328.835	583.8
329.23	576.4
329.625	610.2
330.02	579.6
330.415	601.8
330.81	594.4
331.206	585.2
331.601	587
331.996	592.4
332.37	596.6
332.766	576.6
333.161	607
333.557	587.8
333.953	583.2
334.348	862.2
334.744	587
335.14	583.2
335.536	582.8
335.932	592.4
336.328	585.6
336.724	600.6
337.12	589.4
337.516	586.8
337.913	581
338.309	586.8
338.705	583
339.102	590
339.498	581.2
339.895	596.8
340.291	570.6
340.688	584.8
341.085	578.2
341.481	580.8
341.878	583
342.275	602.4
342.672	577
343.069	576.2
343.466	575.8
343.842	589
344.239	580
344.636	584.2
345.033	573.4
345.431	580
345.828	588.6
346.225	581.4
346.623	614.8
347.02	590
347.418	593.8
347.816	598
348.213	581.2
348.611	590.2
349.009	579.6
349.407	588.8
349.805	570.8
350.203	574.6
350.601	592
350.999	582
351.397	624.4
351.795	584.2
352.193	590.6
352.57	583.6
352.969	592
353.367	579.2
353.766	568.6
354.164	583
354.563	588
354.961	581.4
355.36	574.4
355.759	584
356.158	573.8
356.557	573.8
356.956	574.6
357.355	575.6
357.754	579.6
358.153	581.6
358.552	593.6
358.951	578.6
359.35	588.6
359.75	578.6
360.149	566.8
360.527	574.8
360.926	574.6
361.326	583
361.726	575.8
362.125	575.6
362.525	587.6
362.925	579
363.325	575.8
363.724	578.6
364.124	572.4
364.524	581.6
364.924	569.4
365.324	586.4
365.725	567.4
366.125	582.8
366.525	574.4
366.904	562.4
367.304	563.4
367.705	584.8
368.105	587.4
368.506	575.4
368.906	574.8
369.307	577.2
369.708	579.4
370.108	569
370.509	592.6
370.91	578.4
371.311	581.8
371.712	581.4
372.113	574.6
372.514	568
372.894	576.2
373.295	567.2
373.696	584.4
374.097	583.6
374.499	602.2
374.9	578.2
375.301	572
375.703	573.6
376.105	571.4
376.506	589.8
376.908	582.4
377.309	580.6
377.711	582
378.113	576.4
378.493	584
378.895	570.8
379.297	592.4
379.699	567.2
380.102	587
380.504	579.4
380.906	573
381.308	591.4
381.71	582.4
382.113	580.2
382.515	572.8
382.918	580.4
383.299	573
383.701	582.4
384.104	581.2
384.507	564.8
384.909	572
385.312	558.8
385.715	567
386.118	572.6
386.521	569
386.924	582.8
387.327	568.4
387.709	566.4
388.112	557.4
388.515	573.8
388.918	576.4
389.322	581.4
389.725	569
390.129	592.8
390.532	572.4
390.936	578.2
391.339	573
391.743	569.2
392.125	576.4
392.529	583
392.933	590.4
393.337	576.4
393.74	570
394.144	577.6
394.548	574.4
394.953	573
395.357	580.4
395.761	572.8
396.144	572.8
396.548	575.2
396.952	579
397.357	580.2
397.761	574.2
398.166	567.6
398.57	577.8
398.975	568.4
399.379	582
399.763	608.4
400.168	572.8
400.572	577.2
400.977	574.6
401.382	593.8
401.787	575.8
402.192	588
402.597	585.2
403.002	567.8
403.386	583.8
403.791	588.2
404.197	571
404.602	576.6
405.007	576.8
405.413	570.2
405.818	571.2
406.224	572
406.608	574.2
407.014	573.8
407.42	587.4
407.825	571.2
408.231	582.2
408.637	575.2
409.043	590.6
409.449	564.2
409.834	572.6
410.24	575.2
410.646	587.4
411.052	581.8
411.458	583.4
411.865	578.4
412.271	581
412.677	567.4
413.062	579.6
413.469	568.6
413.875	590.2
414.282	581.6
414.689	580.6
415.095	582
415.502	569
415.888	564
416.294	563
416.701	608
417.108	571.8
417.515	582.8
417.923	575.4
418.33	586.8
418.715	582
419.123	574.2
419.53	575
419.937	579.6
420.345	586
420.752	579.6
421.16	589
421.546	580.4
421.953	584.4
422.361	581.2
422.769	576.6
423.177	565.8
423.585	600.2
423.992	590.2
424.379	586.8
424.787	585.6
425.195	591
425.603	578
426.011	595.8
426.419	590.4
426.806	579.8
427.214	580.2
427.623	592.4
428.031	591.6
428.44	582.4
428.848	593.8
429.235	601.2
429.644	580.4
430.053	582.4
430.461	604
430.87	616
431.279	600.4
431.666	602
432.075	604.4
432.484	605.6
432.893	611.4
433.302	629.6
433.711	645
434.099	620.8
434.508	624.2
434.918	629
435.327	646.6
435.737	650.2
436.125	653.4
436.534	664.6
436.944	672.4
437.353	671.4
437.763	679.8
438.173	675.6
438.561	692.2
438.971	672.6
439.381	708.2
439.791	702.2
440.201	686
440.589	707.8
440.999	722.8
441.409	722.8
441.819	719.4
442.23	737.8
442.619	748.2
443.029	743.6
443.439	759.4
443.85	755
444.26	767.2
444.649	762.2
445.06	762.4
445.471	750.8
445.881	760.4
446.292	783.4
446.682	789.4
447.092	768.2
447.503	812
447.914	766.2
448.325	781
448.715	777.4
449.126	783.8
449.537	790.2
449.948	785.6
450.338	795.4
450.75	796.4
451.161	785
451.572	805.6
451.984	793.8
452.374	791
452.786	795.6
453.197	795.6
453.609	793.6
453.999	790.4
454.411	789.4
454.823	806.4
455.235	800.2
455.647	794.2
456.037	804.8
456.449	795.6
456.862	812.2
457.274	806.2
457.665	800.4
458.077	807.8
458.489	832.4
458.902	811.6
459.293	808.8
459.705	803.2
460.118	807.6
460.53	814.4
460.921	815.2
461.334	808.8
461.747	811.2
462.16	828
462.551	812.6
462.964	809.8
463.377	808
463.79	802
464.182	829.2
464.595	791
465.008	803.8
465.421	813.8
465.813	802
466.226	814.2
466.64	810.8
467.053	857.4
467.445	828.4
467.859	824
468.272	810.6
468.686	823.8
469.078	804
469.492	805.4
469.906	815.6
470.298	822.8
470.712	794.6
471.126	837.2
471.54	800.6
471.933	802
472.347	806.6
472.761	800.6
473.175	792
473.568	803.8
473.982	792.8
474.397	806.6
474.79	812
475.204	806.4
475.619	794.6
476.033	805.8
476.426	802.6
476.841	794.2
477.256	817.2
477.649	789.2
478.064	790.2
478.479	786.2
478.872	785.8
479.287	778.2
479.702	783.2
480.118	788.2
480.511	786.8
480.927	784.4
481.342	778
481.736	782
482.151	767.8
482.566	782.2
482.96	780.2
483.376	780.6
483.792	774
484.186	783.4
484.602	772.4
485.017	772.2
485.412	764.8
485.827	783.6
486.243	776.4
486.638	782.8
487.054	777
487.47	784.2
487.865	770.6
488.281	764.4
488.697	765.2
489.092	755.2
489.508	762
489.925	771.6
490.32	767.4
490.736	763.6
491.153	760.6
491.548	760.8
491.964	760.8
492.381	753
492.776	764
493.193	751.2
493.61	753
494.006	737.2
494.422	748.4
494.84	745
495.235	758.4
495.652	738.8
496.069	747.2
496.465	738.6
496.883	740
497.3	754.8
497.696	732.4
498.113	745
498.509	716.2
498.927	733.4
499.344	720.6
499.741	733.4
500.158	731
500.576	733
500.973	723.4
501.39	725.4
501.787	716.4
502.205	728
502.623	719
503.02	708.2
503.438	714.8
503.856	715.4
504.253	712.2
504.671	712.6
505.068	707.2
505.486	706.8
505.905	730.6
506.302	703.4
506.72	715.2
507.118	696.6
507.536	697.4
507.955	705.6
508.352	701.2
508.771	702.4
509.169	706.2
509.587	690.2
510.006	691.6
510.404	679.2
510.823	688.4
511.221	687.4
511.64	690.6
512.038	706
512.457	684.8
512.877	682.6
513.275	681.8
513.694	681.4
514.092	673.8
514.512	685.4
514.91	687
515.33	678.4
515.749	683.2
516.148	677
516.568	676.4
516.966	666.6
517.386	672.4
517.785	678.8
518.205	662.4
518.603	665.2
519.024	667.8
519.444	677.8
519.843	673.8
520.263	661
520.662	670.4
521.082	656.6
521.481	665.8
521.902	661.8
522.301	660.2
522.722	658.2
523.121	661
523.542	657.8
523.963	650
524.362	664
524.783	660.4
525.183	658
525.604	658.4
526.003	650.2
526.425	641.4
526.824	657.8
527.246	660.4
527.646	649
528.067	647.2
528.467	643.4
528.888	644.8
529.289	641.6
529.71	640.2
530.11	647.2
530.532	648.2
530.932	637.6
531.354	637.8
531.755	667.2
532.176	640.8
532.577	632.4
532.999	641
533.4	631.6
533.822	641.4
534.223	642
534.645	628.4
535.046	630.4
535.468	632.4
535.869	647.6
536.292	624
536.693	657.8
537.115	630.6
537.516	627
537.939	622.4
538.34	639.8
538.742	643.8
539.165	632
539.566	633.8
539.989	624
540.391	629.6
540.814	630.2
541.216	628.4
541.639	634.6
542.041	637.6
542.464	625.4
542.866	623.6
543.268	611.2
543.691	620.6
544.093	624.6
544.517	637.8
544.919	610
545.343	641.6
545.745	613
546.147	619.6
546.571	620
546.974	614.6
547.398	620.2
547.8	625
548.224	612
548.627	614
549.03	620.6
549.454	613.6
549.857	607.4
550.281	612.6
550.684	611.6
551.087	621.4
551.512	605.4
551.915	626
552.34	606.6
552.743	607.4
553.146	613.6
553.571	608.8
553.975	627
554.399	603
554.803	648.2
555.207	610.6
555.632	607.6
556.036	601.8
556.461	607.6
556.865	610.2
557.268	597.4
557.694	608
558.098	603.2
558.502	609.6
558.927	599.6
559.332	604.4
559.736	604
560.162	602
560.566	595.8
560.992	602.6
561.396	594.8
561.801	596.6
562.227	598.6
562.631	600.8
563.036	592.4
563.462	602.2
563.867	601.4
564.272	585.6
564.698	596.6
565.103	591
565.508	618.6
565.935	595.4
566.34	598.2
566.745	608.4
567.172	584.8
567.577	614.8
567.982	602.6
568.409	596.8
568.815	583.2
569.22	591.2
569.626	603.4
570.053	582.4
570.459	598.8
570.865	600.8
571.292	590.2
571.698	586.2
572.104	583
572.531	590.4
572.937	605.4
573.343	588.6
573.75	586.2
574.177	601.8
574.583	592.2
574.99	586.8
575.396	594.6
575.824	580.2
576.231	593.6
576.637	583.4
577.065	604.8
577.472	581.8
577.879	587.8
578.286	601.6
578.714	589.6
579.121	588.8
579.528	580.4
579.935	584.4
580.364	583.4
580.771	568
581.178	577.6
581.585	581.2
582.014	585.8
582.421	573.8
582.829	571.8
583.236	588.8
583.644	578.8
584.073	580.6
584.481	576.4
584.889	571
585.296	592
585.726	580.8
586.134	573.8
586.542	581
586.95	598.2
587.358	573.2
587.787	582.6
588.196	584
588.604	583.8
589.012	575.8
589.421	576.8
589.851	578.4
590.259	581.2
590.668	581
591.076	608.8
591.485	573
591.894	575.4
592.324	580.6
592.733	585.4
593.142	560
593.551	575.6
593.96	572
594.369	563.2
594.8	569.4
595.209	570.4
595.618	562
596.028	563.8
596.437	566.8
596.847	586.4
597.256	574.8
597.687	573.8
598.097	575.8
598.507	564.2
598.917	581
599.327	583
599.736	570.2
600.146	585.4
600.556	575.2
600.988	589.8
601.398	570.2
601.808	577.4
602.219	565.8
602.629	573.2
603.039	577.2
603.45	601.2
603.86	573
604.271	581.4
604.703	572.8
605.114	560.6
605.525	573
605.935	577.6
606.346	585.6
606.757	570.8
607.168	569.4
607.579	561.6
607.99	572.4
608.402	571.8
608.813	581.6
609.224	568.8
609.636	562.6
610.047	558.6
610.48	567.8
610.892	579.6
611.303	576.6
611.715	569
612.127	564
612.539	569.6
612.95	581.2
613.362	567
613.774	558.2
614.186	573.4
614.599	565.6
615.011	587.4
615.423	570
615.835	565.4
616.248	564.2
616.66	576.2
617.073	564
617.485	567.2
617.898	571.8
618.311	565.2
618.723	568.8
619.136	595.6
619.549	576.2
619.962	582.2
620.375	561.6
620.788	566.4
621.201	570
621.614	568.2
622.028	561.8
622.441	569.2
622.854	574.6
623.268	562
623.681	581.6
624.095	569.2
624.509	574.8
624.922	574.6
625.336	560.2
625.728	568.6
626.142	571.2
626.556	588.2
626.97	571.6
627.384	577.8
627.799	564.2
628.213	574.8
628.627	565.6
629.041	568.2
629.456	566.8
629.87	572.6
630.285	572.8
630.699	571.4
631.093	570.8
631.507	564.8
631.922	564
632.337	578.4
632.752	557.2
633.167	565.2
633.582	569.2
633.997	567.6
634.412	561.8
634.806	562.6
635.221	559.8
635.637	575
636.052	557.6
636.468	573.4
636.883	584.4
637.299	570.2
637.715	553.6
638.109	561.6
638.525	555.2
638.941	578
639.357	562.8
639.773	581
640.189	565.4
640.584	561.6
641	568
641.416	555.6
641.832	565.6
642.249	560.4
642.665	559
643.06	571.2
643.477	569.2
643.894	560.4
644.31	561.4
644.727	566
645.123	563.2
645.54	562
645.957	562
646.374	568.6
646.77	562
647.187	586.2
647.604	561.8
648.021	564
648.439	555
648.835	565.8
649.252	568.2
649.67	565.6
650.088	563
650.484	562.8
650.902	572
651.32	570.6
651.738	564.6
652.134	568
652.552	573.2
652.971	559.8
653.389	569.8
653.786	579.4
654.204	581.6
654.622	555
655.019	567.8
655.438	568.4
655.857	566.6
656.275	561.6
656.673	558.6
657.091	570.8
657.51	557.6
657.908	569.4
658.327	578
658.746	564.6
659.144	561.4
659.563	576
659.982	563.6
660.38	555
660.8	563
661.219	578.6
661.617	563.4
662.037	560.6
662.457	575.2
662.855	555.2
663.275	585.2
663.695	559.4
664.094	559.8
664.514	565.4
664.934	560.8
665.333	565
665.753	555.2
666.152	557
666.572	557.2
666.993	568.4
667.392	548.6
667.812	561.2
668.212	557.2
668.632	573
669.053	559.4
669.453	562.6
669.874	561.8
670.273	559.6
670.694	560.2
671.116	570.6
671.515	570.6
671.937	553.4
672.337	556.4
672.758	559.4
673.158	565.6
673.58	554.4
673.98	564.4
674.402	565.6
674.824	557.2
675.224	563.4
675.646	551.2
676.047	549.8
676.469	559.8
676.869	562
677.292	555.8
677.693	555.6
678.115	557
678.516	567.6
678.939	560.8
679.34	561
679.762	574.4
680.164	573.8
680.586	561.6
680.988	562.6
681.411	587
681.812	556.4
682.236	553
682.637	554.4
683.061	549
683.462	569.8
683.864	554.2
684.288	563.6
684.69	554.8
685.114	570.8
685.516	568.6
685.94	552
686.342	573
686.766	550.4
687.168	559.4
687.571	580.2
687.995	569.4
688.398	548.8
688.822	561.8
689.225	571
689.628	574.2
690.052	556.4
690.456	565.6
690.88	559.6
691.284	553.8
691.687	562.6
692.112	554.8
692.515	558.8
692.919	564
693.344	562
693.747	553.6
694.173	551.2
694.577	569.8
694.98	557.8
695.406	553.8
695.81	559.8
696.214	554
696.64	561.2
697.044	556.6
697.448	568.2
697.874	556.4
698.279	556.2
698.684	551.8
699.11	560
699.514	554.6
699.919	557
700.324	549.2
700.75	558.4
701.156	560.8
701.561	569.6
701.987	566.2
702.393	571.6
702.798	571.6
703.203	561.6
703.63	552.2
704.036	557.4
704.442	551.2
704.847	551.8
705.274	566.8
705.68	563
706.086	563
706.492	544.6
706.92	558
707.326	562.8
707.732	546.4
708.139	554.4
708.545	557.8
708.973	553.2
709.38	567.4
709.786	551.6
710.193	571.2
710.6	559.6
711.028	553.6
711.435	554.6
711.842	565
712.249	551.6
712.656	554
713.064	563.8
713.492	550
713.9	556.2
714.307	563.2
714.715	556.6
715.123	562.2
715.53	558.6
715.938	563.8
716.367	552.6
716.775	559
717.184	554.2
717.592	562.8
718	567.2
718.408	590.6
718.816	583.8
719.225	563.6
719.633	563
720.042	554
720.472	553.8
720.881	576.6
721.29	564.2
721.699	550
722.108	562.8
722.517	559.4
722.926	552
723.335	566.8
723.744	550
724.154	565.2
724.563	550.6
724.973	567
725.382	563.2
725.792	554.4
726.202	554.2
726.612	575.4
727.022	559.6
727.432	553.2
779.813	560
780.223	588.6
780.634	555.6
781.044	553
781.454	552
781.865	562.8
782.276	546.6
782.686	563.2
783.097	550
783.508	559.8
783.919	560.2
784.33	559.2
784.741	562.2
785.152	555.2
785.563	553.4
785.974	548.8
786.386	575.4
786.776	552.4
787.188	556.6
787.599	550
788.011	567.8
788.423	559
788.835	551.6
789.247	549.4
789.659	548.6
790.071	548.2
790.483	593
790.874	550
791.286	566.2
791.699	552.4
792.111	558.6
792.524	558.8
792.937	555.2
793.349	551.4
793.741	557
794.154	550.8
794.567	572.8
794.98	561.8
795.393	550.2
795.785	575.2
796.198	544.8
796.612	558.2
797.026	558
797.439	546
797.831	560.8
798.245	551.8
798.659	554.4
799.073	554
799.487	557.2
799.88	556.6
800.294	549.6
800.708	559.2
801.123	569.8
801.516	576.8
801.93	545.2
802.345	546.2
802.76	556.8
803.153	571.6
803.568	559.8
803.983	566
804.377	557.8
804.792	546
805.207	546.4
805.601	555.4
806.016	589
806.432	552.8
806.826	583
807.242	564
807.658	557
808.052	553.6
808.468	551.6
808.884	549.4
809.279	557.2
809.695	562.4
810.111	571.8
810.506	559.4
810.922	568.6
811.339	558.6
811.734	554.2
812.151	555.2
812.546	548
812.963	547.8
813.38	559.6
813.776	557
814.193	568.2
814.589	549.4
815.006	552.4
815.402	548.4
815.82	557.6
816.237	557.6
816.633	563.8
817.051	552.2
817.448	553
817.866	547.4
818.262	570.6
818.68	549
819.077	542.4
819.495	553.6
819.892	591.4
820.311	546.4
820.708	557.4
821.127	549.2
821.524	563
821.943	552.8
822.34	568.8
822.759	561.2
823.157	557.2
823.576	567
823.974	561
824.393	585.6
824.791	549.6
825.189	548
825.609	554.4
826.007	547
826.427	546.2
826.826	548.4
827.246	553.4
827.644	542
828.043	563.2
828.463	551.8
828.862	560.8
829.261	557.6
829.682	547.8
830.081	559.6
830.502	547
830.901	555.6
831.301	563.6
831.722	540.4
832.121	563
832.521	553.6
832.943	562.2
833.342	553.6
833.742	550.6
834.164	557
834.564	553
834.965	557.2
835.386	561.2
835.787	551.4
836.188	559.8
836.588	551.2
837.01	552.8
837.411	547
837.812	564
838.213	552.2
838.636	551.8
839.037	614.2
839.438	548.2
839.84	552.8
840.263	554.6
840.664	550.2
841.066	544.8
841.468	557
841.891	551.2
842.293	563.8
842.695	561.6
843.098	559.6
843.5	553.4
843.902	558.8
844.326	556.2
844.729	556.8
845.131	558.4
845.534	561
845.937	568
846.34	566.8
846.764	548
847.167	552.6
847.571	542
847.974	547.8
848.377	546
848.781	596
849.184	564
849.588	552.2
849.992	550.4
850.396	551.4
850.821	562
851.225	556.2
851.63	552.2
852.034	561
852.438	553.4
852.843	576.4
853.247	547.6
853.652	544.2
854.057	564.6
854.462	554
854.867	557
855.272	575.4
855.677	556.8
856.082	548.2
856.487	542.4
856.893	563
857.298	548.2
857.704	552.8
858.11	549
858.516	561
858.922	556.4
859.328	559
859.734	556.8
860.14	563.6
860.525	551
860.931	545.4
861.338	549
861.745	548.6
862.151	558.8
862.558	559.4
862.965	548
863.372	547
863.779	548
864.186	572.6
864.572	547.4
864.98	570.4
865.387	575.2
865.795	548.4
866.203	557.4
866.61	545.4
867.018	557.2
867.405	561.8
867.813	552.8
868.221	550.8
868.63	551.4
869.038	567.2
869.425	584.6
869.834	558.2
870.243	555.6
870.652	548.2
871.039	556.2
871.448	549
871.857	558.8
872.266	555.8
872.654	563
873.064	549.2
873.473	559.8
873.883	545.2
874.271	547.4
874.681	560.8
875.091	543.6
875.48	555.6
875.89	571.6
876.3	549
876.689	537.6
877.1	545.2
877.51	554.6
877.9	573.2
878.31	548.2
878.721	580.4
879.111	554
879.522	550.2
879.933	542.6
880.323	540.4
880.734	551.6
881.125	551.4
881.536	553.4
881.948	547.2
882.338	553.6
882.75	557.4
883.141	553.6
883.553	556.4
883.944	572
884.356	561.6
884.769	548.6
885.16	555.4
885.573	558.6
885.964	546.8
886.377	553.6
886.768	546.4
887.181	553.6
887.573	546.4
887.987	559
888.378	559
888.792	557.4
889.184	589
889.598	549.4
889.99	560.8
890.383	555.6
890.797	543.8
891.19	563.2
891.604	553
891.997	549.2
892.411	544
892.805	542
893.198	555
893.613	537.2
894.006	549.8
894.421	547.2
894.815	553.8
895.209	543.2
895.624	578
896.018	568
896.412	558.6
896.828	542.6
897.222	548.2
897.617	546
898.033	565.6
898.427	550.4
898.822	552
899.239	552
899.634	541.4
900.029	569.6
900.424	545.6
900.841	544.4
901.236	560
901.632	555.8
902.027	589.4
902.445	558.8
902.841	553.2
903.237	556.8
903.633	568.2
904.05	555.4
904.447	557
904.843	565.6
905.24	552.8
905.636	542.4
906.033	548.2
906.451	566
906.848	542.8
907.246	543
907.643	552.6
908.04	551.4
908.438	565.6
908.835	559.8
909.254	553.6
909.652	554.2
910.05	552.4
910.448	532.8
910.846	554.6
911.244	546.6
911.643	553.2
912.041	546.4
912.44	559.4
912.839	542.6
913.237	552
913.636	544.6
914.035	559.2
914.434	550.2
914.834	560
915.233	565
915.633	543.8
916.032	552.4
916.432	537
916.832	557
917.232	554.6
917.632	545
918.032	553.2
918.432	551.8
918.833	547
919.233	549.6
919.634	539.8
920.035	559.4
920.436	541.8
920.837	550.4
921.238	541
921.639	548
922.019	549.6
922.42	559.8
922.822	555.8
923.224	555.2
923.625	551.6
924.027	561
924.429	568.8
924.81	554.8
925.212	556.4
925.615	553.6
926.017	552.4
926.42	557.6
926.801	551.4
927.204	553.8
927.607	558.8
928.01	563.6
928.413	545
928.795	544.2
929.199	545.6
929.602	551.4
930.006	556.8
930.388	552.6
930.792	560.4
931.196	552.4
931.579	573.8
931.983	542.8
932.388	592.4
932.771	549.6
933.176	541.4
933.58	547.4
933.964	558.6
934.369	539.8
934.774	547.2
935.158	548.2
935.563	553.6
935.947	552
936.353	554.4
936.759	555
937.143	551.6
937.549	554.4
937.934	558.8
938.34	561
938.746	539.4
939.131	547.2
939.538	550.2
939.923	556.4
940.33	543.6
940.716	553.6
941.123	556.8
941.508	557.4
941.916	566.4
942.302	549
942.709	545.8
943.096	551.8
943.503	559.4
943.89	554.8
944.298	544
944.685	568.6
945.072	545.4
945.48	552.4
945.867	547.6
946.276	543.4
946.663	564.6
947.051	550.8
947.46	553.4
947.848	549.4
948.257	546.4
948.645	549.8
949.033	546.2
949.443	544.2
949.831	581
950.22	542.6
950.63	557.8
951.018	580
951.407	549.4
951.796	551.8
952.207	559.4
952.596	559
952.985	542.6
953.375	578
953.786	549
954.176	542.2
954.566	554.4
954.956	540.8
955.367	548.2
955.758	563.2
956.148	546.2
956.539	552.8
956.929	548.2
957.341	536
957.732	553.6
958.123	560.4
958.515	541.4
958.906	559.8
959.297	545.2
959.689	538.4
960.102	551.4
960.494	548.2
960.886	545.2
961.278	551
961.67	565
962.062	577.2
962.455	553.6
962.847	535.8
963.24	551.6
963.633	547.2
964.026	550.4
964.419	551.2
964.812	553.8
965.206	549.8
965.599	555.6
965.993	547
966.386	547.6
966.78	548
967.174	556.2
967.569	545.2
967.963	535.2
968.357	547.6
968.752	541.8
969.146	539.6
969.541	541.4
969.936	545
970.331	551
970.705	552.4
971.1	551.4
971.496	555
971.892	545.8
972.287	544.4
972.683	550.2
973.079	549.4
973.454	552.4
973.85	551
974.247	556.6
974.643	570.4
975.04	549.2
975.415	545.8
975.812	550.4
976.209	548.2
976.607	543.2
976.982	553
977.38	566.2
977.778	552.6
978.175	553.8
978.552	551.6
978.95	558.2
979.348	551.4
979.725	583.8
980.123	550.6
980.522	549.2
980.899	550
981.298	544.4
981.697	557.2
982.075	550
982.474	550.8
982.852	553.2
983.251	554
983.651	545
984.029	552
984.429	552
984.808	542.2
985.208	546
985.609	536.4
985.987	537
986.388	546.6
986.768	549.4
987.168	547.4
987.548	553
987.949	555.2
988.329	554.2
988.731	538.4
989.111	543
989.491	544.4
989.893	547.6
990.273	556.6
990.676	538
991.057	542.2
991.459	552.4
991.84	551.6
992.221	543.6
992.624	567.4
993.006	555
993.388	548.6
993.791	563.8
994.173	554.6
994.576	579.2
994.959	537.6
995.341	549.4
995.724	543.2
996.128	539.8
996.511	547.4
996.894	546.8
997.298	547.4
997.681	551.2
998.065	554.2
998.448	542.6
998.854	552.4
999.237	539.6
999.621	564.6
1000.01	557.6
1000.39	550.2
1000.8	546.2
1001.18	554
1001.56	550.6
1001.95	555.8
1002.33	551.2
1002.72	553
1003.13	542.4
1003.51	544.6
1003.9	541.8
1004.28	557.2
1004.67	543.8
1005.06	547.6
1005.44	576
1005.83	540
1006.21	540.4
1006.6	548.6
1006.99	556.2
1007.37	558.2
1007.76	558.8
1060.12	543
1060.51	538
1060.89	551.6
1061.28	554
1061.67	549.6
1062.06	552
1062.45	560.4
1062.83	540.8
1063.22	553.8
1063.61	578.8
1064	549.4
1064.39	544.4
1064.78	551
1065.14	553.6
1065.53	547.8
1065.92	553
1066.31	547.8
1066.7	546.6
1067.09	553
1067.46	561
1067.85	541.6
1068.24	546.4
1068.63	555.4
1069.02	540
1069.39	551.4
1069.78	549.2
1070.17	547.2
1070.57	544
1070.93	552
1071.33	550
1071.72	554.4
1072.11	548
1072.48	547.4
1072.87	547.8
1073.26	546.2
1073.64	542.4
1074.03	539
1074.4	541.2
1074.79	552.6
1075.19	555
1075.56	543
1075.95	551
1076.34	545.8
1076.72	543
1077.11	552.6
1077.48	556
1077.88	553.6
1078.25	541.4
1078.64	556.4
1079.02	550.8
1079.41	551
1079.78	546
1080.18	542.2
1080.55	591.8
1080.95	541.6
1081.32	542.2
1081.72	554.4
1082.09	547.4
1082.49	540.2
1082.86	542.2
1083.24	539.4
1083.63	529.8
1084.01	547
1084.38	548.8
1084.78	535.6
1085.16	554.8
1085.55	558.2
1085.93	561.2
1086.31	548
1086.7	567
1087.08	548.8
1087.46	546.4
1087.83	538
1088.23	551.6
1088.61	543.6
1088.99	552.6
1089.36	545.4
1089.76	542.4
1090.14	547.2
1090.52	552.4
1090.9	544.6
1091.27	548.6
1091.67	567.8
1092.05	543.2
1092.43	548
1092.81	556.6
1093.19	553.6
1093.57	544.6
1093.95	542.4
1094.35	558
1094.73	552.8
1095.11	540.6
1095.49	542.4
1095.87	550.8
1096.25	551.6
1096.63	548.2
1097.01	549
1097.39	548
1097.77	549.4
1098.15	548
1098.53	543.6
1098.91	552.4
1099.29	544.4
1099.68	566.8
1100.06	549.2
1100.44	538
1100.82	556.6
1101.18	557.6
1101.56	543.8
1101.95	543.2
1102.33	548.4
1102.71	553
1103.1	538
1103.48	533.8
1103.86	532
1104.22	545.8
1104.61	541.8
1104.99	547.6
1105.38	537.8
1105.76	549.2
1106.12	543.8
1106.51	571.6
1106.89	554.8
1107.26	551
1107.64	553.4
1108.03	537.8
1108.41	551.4
1108.78	552.4
1109.16	546.8
1109.55	559.2
1109.91	542.2
1110.3	537
1110.69	551
1111.05	536.6
1111.44	542.8
1111.8	553.8
1112.19	550.4
1112.58	549.2
1112.94	541.2
1113.33	539.2
1113.7	540
1114.09	541.8
1114.45	543.4
1114.84	547.6
1115.21	551.4
1115.6	543.4
1115.96	557.6
1116.35	555.8
1116.72	549.6
1117.11	549.4
1117.48	546.4
1117.85	545.6
1118.24	551.6
1118.6	542.8
1118.99	541.8
1119.36	552.6
1119.73	552.4
1120.12	546.8
1120.49	542.6
1120.86	551
1121.25	542.8
1121.62	533.8
1121.99	549.8
1122.38	554
1122.76	547.2
1123.13	544
1123.5	547.4
1123.89	557.4
1124.26	535
1124.63	556.8
1125	548.8
1125.4	544.6
1125.77	538.2
1126.14	538.4
1126.51	540.8
1126.88	550.4
1127.26	541
1127.63	541.2
1128.02	546
1128.4	547.2
1128.77	541
1129.14	544.8
1129.52	544.6
1129.89	545.4
1130.26	540
1130.64	544.4
1131.01	543.4
