#lambda/nm	C1
208.295	546
208.67	490
209.045	455.4
209.419	452.6
209.794	610
210.169	593.8
210.544	692
210.919	607.8
211.295	592
211.67	603.6
212.045	599.2
212.421	593.6
212.796	629.6
213.172	587.4
213.547	589.8
213.923	597
214.299	598
214.675	611.8
215.051	602
215.427	603.8
215.803	612.6
216.179	606.4
216.555	597.4
216.932	606.6
217.308	597.6
217.684	602.2
218.061	604.4
218.438	601.4
218.814	604.8
219.191	606
219.568	594.8
219.945	592.4
220.322	608.6
220.699	603.8
221.076	601
221.453	596
221.83	590.8
222.208	599.4
222.585	596
222.962	600.6
223.34	607
223.717	594
224.095	590.4
224.473	597
224.851	599.4
225.229	584.4
225.607	613.4
225.985	591.8
226.363	599.4
226.741	608.8
227.119	594.6
227.497	614.8
227.876	584.2
228.254	607
228.633	602.8
229.011	601.4
229.39	601.4
229.769	595
230.148	600.8
230.527	618.4
230.905	600.6
231.284	600
231.664	592.6
232.043	606.8
232.422	602.4
232.801	593.2
233.181	602.2
233.56	601.2
233.94	599
234.319	581
234.699	592.6
235.079	636.6
235.458	624.2
235.838	610.4
236.218	588.8
236.598	586.2
236.978	595.6
237.358	587.8
237.738	588
238.119	600.6
238.499	587.2
238.88	602
239.26	607.2
239.641	591.4
240.021	593.8
240.402	597
240.783	597
241.163	598.6
241.544	604.6
241.925	594
242.306	612.8
242.687	597.4
243.069	597.8
243.45	612.4
243.831	587.2
244.212	589.6
244.594	628.6
244.975	595.6
245.357	607.8
245.739	591.8
246.12	597
246.502	617.2
246.884	602.2
247.266	593
247.648	596.6
248.03	619.6
248.412	606.6
248.794	604.4
249.176	593.8
249.559	605.8
249.941	585.8
250.323	593.6
250.706	589.8
251.089	594.2
251.471	604.8
251.854	597.6
252.237	597.6
252.62	607.6
253.002	596.4
253.385	600.4
253.769	612.6
254.152	601
254.535	612.6
254.918	598.8
255.301	601.4
255.685	599.6
256.068	596.6
256.452	618.8
256.835	608
257.219	605.4
257.603	609.2
257.986	597.6
258.37	604.4
258.754	586.4
259.138	595.2
259.522	604
259.906	593.6
260.29	597.4
260.675	595
261.059	610
261.443	594
261.828	605.8
262.212	603.2
262.597	596.2
262.981	591.8
263.366	613
263.751	611.2
264.136	602.6
264.521	599.6
264.906	590.4
265.291	617.2
265.676	602.2
266.061	606.6
266.446	616.8
266.831	597
267.217	615.6
267.602	600.6
267.987	600
268.373	591.2
268.759	604.4
269.144	608
269.53	595.4
269.916	597.2
270.302	592.8
270.688	606
271.074	598
271.46	610.4
271.846	624.2
272.232	596.8
272.618	592.8
273.004	600.2
273.391	616.2
273.777	616.6
274.164	607
274.55	607.2
274.937	601.4
275.324	594
275.71	604.4
276.097	615
276.484	597.6
276.871	607.4
277.258	608.4
277.645	587.6
278.032	595.4
278.419	595.8
278.807	599
279.194	585.4
279.581	588.2
279.969	597.8
280.356	596.6
280.744	596.2
281.131	613.8
281.519	608.8
281.907	597
282.295	589.4
282.682	598.4
283.07	602.8
283.458	603.4
283.846	607.2
284.235	608.4
284.623	607.4
285.011	600.4
285.399	596.4
285.788	604.4
286.176	587
286.565	605.6
286.953	590.8
287.342	591.6
287.731	590
288.119	591.4
288.508	596.8
288.897	597.2
289.286	591.8
289.675	606
290.064	605.2
290.453	593.4
290.821	597.2
291.21	612.2
291.599	598.8
291.989	602
292.378	597.2
292.768	605.8
293.157	601.4
293.547	604.2
293.936	591.6
294.326	603.4
294.716	609.6
295.106	597.6
295.496	603.4
295.886	606.2
296.276	600
296.666	603.4
297.056	593.6
297.446	600.8
297.836	614.2
298.227	594.6
298.617	600
299.008	612.4
299.398	603
299.789	592
300.179	604.4
300.57	609
300.961	597.6
301.352	598.2
301.742	609
302.133	605.6
302.524	601.8
302.915	604
303.307	593.4
303.698	612.4
304.089	608.4
304.48	603.2
304.872	596.8
305.263	597.4
305.655	603
306.046	608.2
306.438	606.4
306.829	590
307.221	613.8
307.613	603.2
308.005	610
308.397	611.4
308.789	614.8
309.181	628.2
309.573	619.6
309.965	611.8
310.357	600.6
310.749	610.6
311.142	589.2
311.534	599
311.926	607.2
312.319	601.6
312.711	601
313.104	607.8
313.497	597.4
313.889	633.2
314.282	610.6
314.675	621.8
315.068	600.2
315.461	605.8
315.854	624
316.247	607
316.64	599.4
317.033	601
317.405	608.4
317.798	601
318.192	605.4
318.585	591.8
318.979	610.2
319.372	592.8
319.766	597.2
320.16	612
320.553	608
320.947	619.6
321.341	599
321.735	593.8
322.129	591.6
322.523	619.4
322.917	597.4
323.311	614.2
323.705	600.6
324.099	603
324.494	612.4
324.888	609.4
325.282	599.4
325.677	614.2
326.071	604.6
326.466	606
326.861	601.6
327.255	607.6
327.65	617
328.045	610.6
328.44	601
328.835	601.4
329.23	597.6
329.625	622.6
330.02	594.8
330.415	620.4
330.81	607.8
331.206	599.8
331.601	597.2
331.996	602.2
332.37	628
332.766	595.4
333.161	622.4
333.557	599
333.953	600.4
334.348	980
334.744	598.2
335.14	598.4
335.536	592.6
335.932	609.6
336.328	601.8
336.724	606.4
337.12	596.8
337.516	601.8
337.913	594
338.309	611.8
338.705	597.8
339.102	608.2
339.498	597.6
339.895	609.6
340.291	598.6
340.688	609.6
341.085	591.8
341.481	598.2
341.878	602.4
342.275	610
342.672	593.8
343.069	592.6
343.466	586.2
343.842	608.8
344.239	599
344.636	596.6
345.033	589.4
345.431	595.4
345.828	599
346.225	591.6
346.623	624.6
347.02	604.6
347.418	610.2
347.816	609.4
348.213	594.6
348.611	606.2
349.009	594.6
349.407	607.8
349.805	597
350.203	586
350.601	611.6
350.999	594.8
351.397	641.6
351.795	602.8
352.193	611.6
352.57	617.6
352.969	614.2
353.367	594
353.766	593.2
354.164	593.8
354.563	606
354.961	602.8
355.36	596.8
355.759	600.2
356.158	588.6
356.557	591.6
356.956	584.6
357.355	586.2
357.754	600.2
358.153	601.6
358.552	627.2
358.951	598.2
359.35	611.4
359.75	596.6
360.149	590.6
360.527	589.6
360.926	585.6
361.326	602.2
361.726	593
362.125	587.8
362.525	589.2
362.925	584.6
363.325	598.6
363.724	595.2
364.124	597.4
364.524	592.4
364.924	586.2
365.324	608
365.725	578.8
366.125	600.8
366.525	589.8
366.904	587.6
367.304	577.8
367.705	617.4
368.105	610
368.506	593.6
368.906	592.4
369.307	598.4
369.708	599
370.108	590.6
370.509	603.6
370.91	590.2
371.311	601.4
371.712	589.6
372.113	590.6
372.514	586.8
372.894	597.6
373.295	599.2
373.696	599.6
374.097	599.6
374.499	620.2
374.9	598.8
375.301	584
375.703	590.8
376.105	591
376.506	589.2
376.908	600.8
377.309	591.8
377.711	595.4
378.113	586.2
378.493	593.8
378.895	584.4
379.297	592.2
379.699	577.6
380.102	593.2
380.504	592.2
380.906	589
381.308	605.8
381.71	590
382.113	594.4
382.515	591
382.918	593
383.299	589.2
383.701	595.8
384.104	593.6
384.507	577.2
384.909	600
385.312	586
385.715	590
386.118	595
386.521	588.8
386.924	606.2
387.327	578
387.709	576
388.112	580.4
388.515	592.8
388.918	594.2
389.322	596.6
389.725	588.6
390.129	617.6
390.532	597.8
390.936	587.6
391.339	587.2
391.743	600.8
392.125	592.2
392.529	601.4
392.933	603.8
393.337	592.8
393.74	588.4
394.144	593.8
394.548	585.2
394.953	596.8
395.357	597
395.761	595
396.144	596.6
396.548	594.6
396.952	590.4
397.357	594.6
397.761	588.2
398.166	593.2
398.57	597
398.975	581.6
399.379	600.4
399.763	633.2
400.168	591.4
400.572	597.2
400.977	596.4
401.382	616
401.787	608.6
402.192	607.4
402.597	609.4
403.002	583
403.386	605.6
403.791	609
404.197	588.6
404.602	594.4
405.007	593.2
405.413	593.8
405.818	598.8
406.224	588
406.608	589.4
407.014	572
407.42	607.2
407.825	587
408.231	605.2
408.637	600.4
409.043	611.8
409.449	593.4
409.834	586.6
410.24	589.4
410.646	599.8
411.052	598.8
411.458	585.8
411.865	590
412.271	593.6
412.677	594.8
413.062	593
413.469	591.6
413.875	619.8
414.282	595.2
414.689	608.4
415.095	603.8
415.502	594.4
415.888	596.8
416.294	579.2
416.701	631.2
417.108	590.4
417.515	606.2
417.923	585.6
418.33	611.8
418.715	602.6
419.123	595.6
419.53	587.4
419.937	591.4
420.345	604
420.752	591.4
421.16	591.8
421.546	593.4
421.953	591.4
422.361	583.8
422.769	593.4
423.177	587.2
423.585	610.4
423.992	611.2
424.379	607
424.787	603.2
425.195	608
425.603	592.8
426.011	604.4
426.419	607.8
426.806	594.4
427.214	596.6
427.623	611.8
428.031	609.8
428.44	602.2
428.848	612
429.235	613.4
429.644	604.8
430.053	609.4
430.461	624.6
430.87	631.4
431.279	628.8
431.666	625.4
432.075	632.8
432.484	650.4
432.893	646.6
433.302	671.2
433.711	690.8
434.099	673.8
434.508	676.2
434.918	680.2
435.327	710.2
435.737	718.6
436.125	730
436.534	729.2
436.944	746.8
437.353	760.8
437.763	771.2
438.173	765.4
438.561	788.4
438.971	770.4
439.381	794.6
439.791	804.6
440.201	796
440.589	819.2
440.999	830.6
441.409	837.6
441.819	836.4
442.23	855.2
442.619	859.4
443.029	862.2
443.439	866
443.85	882.4
444.26	895.4
444.649	880.4
445.06	883.4
445.471	895.8
445.881	901.6
446.292	921
446.682	922.2
447.092	906.4
447.503	946.8
447.914	925.4
448.325	913.6
448.715	932
449.126	919
449.537	934
449.948	930.6
450.338	930
450.75	951.8
451.161	932.2
451.572	945.6
451.984	936.8
452.374	940.4
452.786	952.8
453.197	964
453.609	957.6
453.999	936.6
454.411	940.2
454.823	969.8
455.235	951.4
455.647	959
456.037	963.4
456.449	951.8
456.862	954.4
457.274	969.4
457.665	949.2
458.077	969.4
458.489	985
458.902	951.8
459.293	964.6
459.705	968.8
460.118	958.4
460.53	962.6
460.921	956.6
461.334	976.6
461.747	958.8
462.16	991.8
462.551	976.2
462.964	966.4
463.377	956
463.79	956.4
464.182	962.6
464.595	957.2
465.008	956.4
465.421	972.8
465.813	958
466.226	965.8
466.64	966.6
467.053	999.2
467.445	983
467.859	989.4
468.272	974.8
468.686	987.2
469.078	974.6
469.492	959.6
469.906	966.2
470.298	969
470.712	948.6
471.126	1007.4
471.54	952.4
471.933	952.6
472.347	954
472.761	937.4
473.175	947.6
473.568	943.2
473.982	939.8
474.397	948.6
474.79	961.4
475.204	948.8
475.619	942
476.033	943.4
476.426	952.2
476.841	942
477.256	955.6
477.649	926.2
478.064	930.6
478.479	930.2
478.872	916.2
479.287	913.8
479.702	920.4
480.118	932.4
480.511	928.4
480.927	926.4
481.342	928.8
481.736	927.2
482.151	913
482.566	927
482.96	919
483.376	932.4
483.792	918.2
484.186	930.8
484.602	914.4
485.017	906.8
485.412	906.2
485.827	905.4
486.243	907
486.638	934.8
487.054	898
487.47	924.6
487.865	894.4
488.281	890.6
488.697	884.4
489.092	894
489.508	887.2
489.925	888.4
490.32	890.6
490.736	891.4
491.153	881
491.548	877.2
491.964	888
492.381	852.2
492.776	872.8
493.193	866.4
493.61	865.6
494.006	857.4
494.422	872
494.84	852.8
495.235	863.4
495.652	859.4
496.069	859
496.465	849.6
496.883	839.6
497.3	860.8
497.696	845.2
498.113	851.2
498.509	820.4
498.927	828.4
499.344	825.2
499.741	835.6
500.158	830.2
500.576	836.8
500.973	832
501.39	823
501.787	808
502.205	822.6
502.623	815.4
503.02	801.8
503.438	815.2
503.856	806
504.253	813.6
504.671	806.6
505.068	805.4
505.486	801
505.905	819.2
506.302	797.8
506.72	804.8
507.118	784.8
507.536	793.8
507.955	787.6
508.352	791.6
508.771	781
509.169	791.8
509.587	777.4
510.006	772.6
510.404	764.8
510.823	768.6
511.221	780.4
511.64	781
512.038	786.2
512.457	769
512.877	773.6
513.275	759.2
513.694	767.2
514.092	763.4
514.512	757.6
514.91	756.6
515.33	761
515.749	754.8
516.148	743.8
516.568	756.4
516.966	752.4
517.386	746.8
517.785	740.2
518.205	736.2
518.603	731.6
519.024	727.6
519.444	744.6
519.843	741
520.263	737
520.662	737.2
521.082	724.6
521.481	734.8
521.902	727.2
522.301	721.6
522.722	723.8
523.121	720.2
523.542	720.4
523.963	717.8
524.362	726.4
524.783	720.2
525.183	713.2
525.604	714
526.003	708.6
526.425	712
526.824	705.8
527.246	718.4
527.646	716.2
528.067	699
528.467	699.4
528.888	703
529.289	694.6
529.71	689.2
530.11	684.8
530.532	689.2
530.932	677.8
531.354	675.4
531.755	725.4
532.176	699.2
532.577	679.4
532.999	684.4
533.4	678.8
533.822	697.4
534.223	689
534.645	683
535.046	677.2
535.468	687
535.869	685.8
536.292	672
536.693	711
537.115	669
537.516	679.4
537.939	679
538.34	691
538.742	688.4
539.165	674.8
539.566	680.4
539.989	665.6
540.391	669
540.814	679
541.216	676.6
541.639	666.6
542.041	679.4
542.464	663.2
542.866	664.8
543.268	656.4
543.691	666.8
544.093	668.2
544.517	681
544.919	645.6
545.343	680.2
545.745	657.2
546.147	662
546.571	651.2
546.974	646.6
547.398	653.4
547.8	670.6
548.224	653.6
548.627	655.6
549.03	662
549.454	650.2
549.857	643.2
550.281	643.6
550.684	646.6
551.087	654.8
551.512	656.8
551.915	653
552.34	650.8
552.743	645
553.146	640.4
553.571	637.2
553.975	658.6
554.399	640.4
554.803	681
555.207	641.4
555.632	635.8
556.036	639.8
556.461	632.4
556.865	638.6
557.268	635.2
557.694	646.4
558.098	643.4
558.502	637
558.927	636.8
559.332	637.4
559.736	630.2
560.162	635.6
560.566	638.8
560.992	637
561.396	638.2
561.801	631.4
562.227	627.4
562.631	632
563.036	631
563.462	630.2
563.867	629.2
564.272	618.8
564.698	636.8
565.103	614.4
565.508	649.2
565.935	629.2
566.34	620
566.745	637.4
567.172	619.8
567.577	642
567.982	623.2
568.409	621.6
568.815	609.4
569.22	618.2
569.626	624
570.053	615.4
570.459	617.8
570.865	615
571.292	611.8
571.698	624.2
572.104	602.2
572.531	604.8
572.937	621.8
573.343	613.8
573.75	605
574.177	614.8
574.583	620.4
574.99	612.4
575.396	617.2
575.824	606.6
576.231	622.2
576.637	604.6
577.065	627.4
577.472	605.2
577.879	608.2
578.286	619.6
578.714	604
579.121	598
579.528	604.4
579.935	608
580.364	602.2
580.771	599.2
581.178	596.2
581.585	607
582.014	621
582.421	601.8
582.829	602.6
583.236	612
583.644	597.2
584.073	603.8
584.481	605.2
584.889	607.6
585.296	612.6
585.726	597.2
586.134	595.2
586.542	605.2
586.95	612.6
587.358	593.4
587.787	600.2
588.196	617.6
588.604	598.2
589.012	601.4
589.421	592.6
589.851	599.6
590.259	608.4
590.668	590
591.076	628.4
591.485	595
591.894	599.8
592.324	615.6
592.733	607.4
593.142	592.8
593.551	590
593.96	628
594.369	591.2
594.8	587
595.209	601.4
595.618	585
596.028	591.2
596.437	589.4
596.847	599.2
597.256	590
597.687	602.8
598.097	596.2
598.507	587.8
598.917	587.4
599.327	606.4
599.736	605
600.146	604.4
600.556	595.4
600.988	605
601.398	596.4
601.808	608.4
602.219	578
602.629	588.6
603.039	595.6
603.45	614
603.86	591
604.271	597.8
604.703	591.2
605.114	599.8
605.525	600
605.935	604
606.346	605.2
606.757	596.6
607.168	590.8
607.579	588.6
607.99	599
608.402	592.8
608.813	591.2
609.224	586.2
609.636	576.6
610.047	591
610.48	588
610.892	597
611.303	595.2
611.715	578.8
612.127	584.6
612.539	588.4
612.95	594.2
613.362	581.2
613.774	580.2
614.186	581
614.599	583
615.011	588.8
615.423	588.4
615.835	584.2
616.248	583.2
616.66	591
617.073	582.6
617.485	583.8
617.898	602.6
618.311	593
618.723	591.4
619.136	610.2
619.549	601.6
619.962	610.2
620.375	582.4
620.788	578
621.201	593
621.614	589.8
622.028	590.2
622.441	596
622.854	598.2
623.268	579.2
623.681	587.4
624.095	584.6
624.509	584.6
624.922	585.2
625.336	572.6
625.728	579.6
626.142	599.8
626.556	597.8
626.97	593.8
627.384	580.8
627.799	585.2
628.213	595.2
628.627	583.2
629.041	576.6
629.456	579.8
629.87	584.6
630.285	590.4
630.699	592.4
631.093	584.2
631.507	596.4
631.922	591.2
632.337	598.6
632.752	580.4
633.167	582.2
633.582	587.6
633.997	589.8
634.412	579.6
634.806	586
635.221	577.6
635.637	583
636.052	578.4
636.468	588.2
636.883	606
637.299	586.8
637.715	580.6
638.109	587.6
638.525	570.8
638.941	587.2
639.357	581.8
639.773	596
640.189	588.2
640.584	579.2
641	583.6
641.416	575.2
641.832	581.4
642.249	579
642.665	586
643.06	586.2
643.477	589.6
643.894	571
644.31	587
644.727	573.8
645.123	576
645.54	580.2
645.957	575.4
646.374	587.4
646.77	579.4
647.187	607.8
647.604	579.8
648.021	562.4
648.439	577.2
648.835	583.8
649.252	581.8
649.67	576.4
650.088	576
650.484	582.6
650.902	585
651.32	582.6
651.738	577
652.134	585.4
652.552	589
652.971	579
653.389	587.6
653.786	586.8
654.204	602.4
654.622	568.8
655.019	579.4
655.438	580.6
655.857	582.2
656.275	583.2
656.673	564.2
657.091	594.2
657.51	581
657.908	582.2
658.327	599.6
658.746	567.6
659.144	582.4
659.563	587.6
659.982	581.6
660.38	568.8
660.8	586.6
661.219	591.4
661.617	580.6
662.037	577.6
662.457	589.8
662.855	566.6
663.275	609.4
663.695	583.8
664.094	582.6
664.514	573.8
664.934	572.6
665.333	586
665.753	577.8
666.152	568.8
666.572	563.6
666.993	589.2
667.392	574.6
667.812	566.4
668.212	577.4
668.632	582
669.053	577.2
669.453	578.4
669.874	575
670.273	577
670.694	572
671.116	584.6
671.515	582.2
671.937	570
672.337	565.6
672.758	572.8
673.158	576.6
673.58	570.2
673.98	569.8
674.402	585.2
674.824	575.4
675.224	571
675.646	560.4
676.047	577
676.469	578.2
676.869	586.4
677.292	576.4
677.693	568.4
678.115	574.6
678.516	579.4
678.939	578.2
679.34	581.4
679.762	586.8
680.164	573.2
680.586	568.8
680.988	583
681.411	596.8
681.812	576.2
682.236	571
682.637	568
683.061	562
683.462	580.2
683.864	580
684.288	588.4
684.69	567.4
685.114	590.6
685.516	583.4
685.94	567.6
686.342	579.8
686.766	579.8
687.168	566.8
687.571	590.6
687.995	583.8
688.398	574
688.822	580.4
689.225	589
689.628	591.8
690.052	573
690.456	579.2
690.88	569.2
691.284	567.4
691.687	577.8
692.112	568.8
692.515	572.2
692.919	577
693.344	577.2
693.747	572.4
694.173	566.6
694.577	585.6
694.98	578
695.406	574.2
695.81	581
696.214	572.4
696.64	574.4
697.044	575
697.448	580.8
697.874	573.8
698.279	571.8
698.684	561.6
699.11	569.6
699.514	566
699.919	571.4
700.324	563
700.75	576.2
701.156	572.4
701.561	583.6
701.987	579.4
702.393	578.4
702.798	584
703.203	575.4
703.63	574.4
704.036	575.8
704.442	570.4
704.847	568
705.274	573.6
705.68	574.4
706.086	577
706.492	571.6
706.92	566.4
707.326	576.8
707.732	571.6
708.139	566
708.545	561
708.973	570
709.38	576.8
709.786	559
710.193	578.8
710.6	577
711.028	558.4
711.435	569.6
711.842	574
712.249	569.4
712.656	569.8
713.064	583.8
713.492	568.6
713.9	580.6
714.307	572.2
714.715	570.2
715.123	573
715.53	572.6
715.938	573.6
716.367	575.2
716.775	569.8
717.184	570
717.592	575
718	575.4
718.408	604.4
718.816	612
719.225	575.8
719.633	565.4
720.042	555
720.472	572.6
720.881	583.4
721.29	570.4
721.699	562
722.108	570.6
722.517	564
722.926	561.4
723.335	581.6
723.744	577.8
724.154	573.8
724.563	567.6
724.973	571.8
725.382	572.6
725.792	568.8
726.202	561.6
726.612	592
727.022	572.4
727.432	571.6
779.813	570.4
780.223	614
780.634	569.2
781.044	569.2
781.454	577.6
781.865	582.8
782.276	567.2
782.686	587.8
783.097	572
783.508	575.6
783.919	582.6
784.33	586.8
784.741	583.2
785.152	561.6
785.563	557.4
785.974	559.2
786.386	584
786.776	578.6
787.188	566.6
787.599	573
788.011	573.8
788.423	572.4
788.835	566.2
789.247	563
789.659	567
790.071	568
790.483	604.4
790.874	569
791.286	585.8
791.699	571
792.111	574.4
792.524	577.8
792.937	575.2
793.349	562.6
793.741	561.4
794.154	575.8
794.567	580.2
794.98	570.8
795.393	568.2
795.785	588.8
796.198	569.8
796.612	570.8
797.026	565.2
797.439	560
797.831	573
798.245	567.2
798.659	567
799.073	565.4
799.487	567.4
799.88	566.8
800.294	568.8
800.708	584.2
801.123	572
801.516	585.4
801.93	567
802.345	561.8
802.76	572.8
803.153	587.8
803.568	582
803.983	585.4
804.377	574.6
804.792	564.8
805.207	559.2
805.601	576.4
806.016	602.8
806.432	569.8
806.826	593.6
807.242	585.4
807.658	576.4
808.052	567.8
808.468	570.6
808.884	564.8
809.279	565.8
809.695	580.8
810.111	586.4
810.506	571.4
810.922	584.6
811.339	569.4
811.734	580.4
812.151	573.2
812.546	568.8
812.963	564.2
813.38	574.6
813.776	570
814.193	582.6
814.589	561.6
815.006	559
815.402	565.4
815.82	559.4
816.237	569.4
816.633	563.6
817.051	563.6
817.448	570.8
817.866	560
818.262	579.6
818.68	558.2
819.077	562
819.495	565.2
819.892	598.6
820.311	553.4
820.708	563.6
821.127	563.8
821.524	584.4
821.943	565
822.34	587.2
822.759	570.4
823.157	571.8
823.576	582.2
823.974	578.4
824.393	613
824.791	567.4
825.189	559.2
825.609	567.8
826.007	569.4
826.427	564.4
826.826	561.4
827.246	577.4
827.644	563.4
828.043	582.2
828.463	562.4
828.862	580.8
829.261	573.6
829.682	563.2
830.081	575.2
830.502	564.8
830.901	570.6
831.301	580
831.722	556.2
832.121	569.4
832.521	564
832.943	567.2
833.342	574.8
833.742	564.2
834.164	574.8
834.564	560.6
834.965	568
835.386	569.6
835.787	566
836.188	565.4
836.588	565.8
837.01	566.6
837.411	558.8
837.812	573.6
838.213	581.2
838.636	564
839.037	628.2
839.438	573.2
839.84	569.2
840.263	573.4
840.664	571
841.066	570
841.468	568
841.891	567.2
842.293	579.8
842.695	576
843.098	581
843.5	571.2
843.902	569
844.326	575
844.729	574.2
845.131	582.6
845.534	568.8
845.937	575
846.34	583.2
846.764	559.4
847.167	571.4
847.571	555.6
847.974	577.6
848.377	569.2
848.781	608.8
849.184	572.4
849.588	565.6
849.992	562.4
850.396	572.6
850.821	580
851.225	573.8
851.63	569
852.034	578.4
852.438	569.2
852.843	634
853.247	564.2
853.652	565.2
854.057	585
854.462	574
854.867	571
855.272	589.4
855.677	571.6
856.082	558.8
856.487	564.2
856.893	572.2
857.298	577.4
857.704	562.2
858.11	568
858.516	572.6
858.922	565.8
859.328	574.6
859.734	574.8
860.14	576.4
860.525	576.4
860.931	559
861.338	560.8
861.745	570
862.151	574.4
862.558	573.2
862.965	559
863.372	567
863.779	566.2
864.186	587
864.572	567.4
864.98	579.6
865.387	598.8
865.795	565.8
866.203	572.4
866.61	562
867.018	566.4
867.405	564.4
867.813	561
868.221	566.6
868.63	552
869.038	572.6
869.425	592.2
869.834	567.4
870.243	556.6
870.652	564.2
871.039	563.8
871.448	563.4
871.857	565.6
872.266	576.2
872.654	566.4
873.064	562
873.473	566
873.883	560
874.271	555.8
874.681	574.8
875.091	564
875.48	574.2
875.89	578.2
876.3	562.4
876.689	559.4
877.1	565.2
877.51	565.6
877.9	588.8
878.31	561
878.721	592.4
879.111	568.8
879.522	568.4
879.933	562.2
880.323	559
880.734	563.4
881.125	573
881.536	568.6
881.948	559.2
882.338	578.8
882.75	567.4
883.141	563
883.553	567.8
883.944	585.4
884.356	571
884.769	570
885.16	567.2
885.573	564.6
885.964	561
886.377	569.4
886.768	567
887.181	564.6
887.573	563.8
887.987	564.8
888.378	580.4
888.792	568.8
889.184	615.4
889.598	555.2
889.99	569.8
890.383	564.6
890.797	560.2
891.19	579.8
891.604	557
891.997	561.4
892.411	556.4
892.805	561.6
893.198	559
893.613	554
894.006	559.2
894.421	560.8
894.815	570.6
895.209	554.2
895.624	595.6
896.018	581.2
896.412	565.2
896.828	564.4
897.222	572
897.617	569.2
898.033	584
898.427	568.2
898.822	569.8
899.239	555.6
899.634	556.4
900.029	583.8
900.424	563.2
900.841	559.2
901.236	579.6
901.632	580.6
902.027	612.6
902.445	570
902.841	570.8
903.237	574.8
903.633	574.8
904.05	577.2
904.447	569
904.843	570
905.24	563.4
905.636	565.4
906.033	563
906.451	582.6
906.848	560.8
907.246	560.8
907.643	566.6
908.04	567.4
908.438	585.8
908.835	581.4
909.254	568.2
909.652	572
910.05	566.8
910.448	564.6
910.846	572.8
911.244	549.8
911.643	562
912.041	565.2
912.44	573.6
912.839	561.8
913.237	561
913.636	554.6
914.035	570.8
914.434	561
914.834	577.4
915.233	568.4
915.633	552.4
916.032	554.2
916.432	558.6
916.832	562.6
917.232	566.2
917.632	558
918.032	564.6
918.432	556.2
918.833	558.6
919.233	557.2
919.634	550
920.035	570.4
920.436	562.8
920.837	567
921.238	567
921.639	562.6
922.019	561.2
922.42	573.8
922.822	573.8
923.224	568.6
923.625	556.2
924.027	573
924.429	576.6
924.81	578.6
925.212	572.2
925.615	572.2
926.017	559.8
926.42	580.2
926.801	570.4
927.204	569.8
927.607	573.2
928.01	576.4
928.413	566.8
928.795	548.2
929.199	569.2
929.602	558.2
930.006	561.6
930.388	564.8
930.792	571.6
931.196	565
931.579	603.4
931.983	557
932.388	595.4
932.771	561
933.176	557.2
933.58	568
933.964	562.2
934.369	567.6
934.774	570.8
935.158	564
935.563	566.2
935.947	571
936.353	576
936.759	565
937.143	569.2
937.549	577.4
937.934	581
938.34	586.2
938.746	565
939.131	560.4
939.538	564.4
939.923	562.8
940.33	558.8
940.716	577
941.123	569.8
941.508	577
941.916	585.4
942.302	570.2
942.709	555.2
943.096	561.4
943.503	566.6
943.89	563.2
944.298	570
944.685	584.2
945.072	564.6
945.48	578.4
945.867	560.2
946.276	568.6
946.663	585
947.051	580.2
947.46	565
947.848	572.4
948.257	561.6
948.645	569.6
949.033	553.2
949.443	552.2
949.831	595.8
950.22	557.2
950.63	579.2
951.018	589
951.407	562.8
951.796	556.2
952.207	568
952.596	563.4
952.985	560.2
953.375	593.4
953.786	560.6
954.176	553.2
954.566	575
954.956	558.4
955.367	568
955.758	582.4
956.148	562
956.539	571.8
956.929	557.4
957.341	553
957.732	558.6
958.123	571
958.515	559
958.906	567.8
959.297	561.6
959.689	556.4
960.102	556.2
960.494	565.8
960.886	561.4
961.278	562.2
961.67	577.6
962.062	590.8
962.455	562.6
962.847	547.8
963.24	558.6
963.633	560.4
964.026	550
964.419	555.2
964.812	566.4
965.206	559.2
965.599	568.6
965.993	564.4
966.386	552.6
966.78	568
967.174	570.8
967.569	564.8
967.963	556.8
968.357	556
968.752	561.2
969.146	565.4
969.541	557.4
969.936	563.4
970.331	569.8
970.705	565.8
971.1	566.2
971.496	571.2
971.892	556
972.287	565.4
972.683	557.4
973.079	563.4
973.454	574.4
973.85	569.4
974.247	569.4
974.643	584
975.04	561.8
975.415	569.4
975.812	560.4
976.209	571.6
976.607	564.4
976.982	576
977.38	582.2
977.778	561.8
978.175	568
978.552	568
978.95	565
979.348	570.4
979.725	612
980.123	560.4
980.522	563.4
980.899	556.6
981.298	561.8
981.697	567
982.075	568
982.474	557.2
982.852	558.4
983.251	566.8
983.651	560.8
984.029	572.6
984.429	558
984.808	550.4
985.208	570.8
985.609	554.6
985.987	563.4
986.388	559
986.768	574.2
987.168	561
987.548	559.4
987.949	573.8
988.329	569.8
988.731	565.2
989.111	573.4
989.491	563.2
989.893	560
990.273	560.8
990.676	555.6
991.057	556.6
991.459	565.6
991.84	560.2
992.221	552.2
992.624	577.8
993.006	575.4
993.388	563.4
993.791	556.4
994.173	561.4
994.576	593.6
994.959	562
995.341	569.4
995.724	567.4
996.128	557.4
996.511	562.6
996.894	561
997.298	556.2
997.681	565.4
998.065	561.8
998.448	565
998.854	571.6
999.237	559.2
999.621	571.2
1000.01	571.4
1000.39	556
1000.8	569.2
1001.18	567.8
1001.56	568.6
1001.95	572.8
1002.33	560.4
1002.72	565.6
1003.13	562.2
1003.51	559
1003.9	557
1004.28	578.2
1004.67	551.2
1005.06	555.4
1005.44	585.4
1005.83	553.6
1006.21	560.2
1006.6	556.2
1006.99	567.8
1007.37	569.4
1007.76	557.4
1060.12	556
1060.51	546.4
1060.89	569
1061.28	572
1061.67	569.4
1062.06	566
1062.45	559
1062.83	551.4
1063.22	562.2
1063.61	589.2
1064	561.6
1064.39	562.8
1064.78	556.8
1065.14	574.2
1065.53	565
1065.92	558.4
1066.31	554
1066.7	560.6
1067.09	571.4
1067.46	575.4
1067.85	560.8
1068.24	569.4
1068.63	568
1069.02	551.6
1069.39	569
1069.78	556
1070.17	565.8
1070.57	555.4
1070.93	559
1071.33	565.2
1071.72	561.8
1072.11	552.2
1072.48	553
1072.87	561.2
1073.26	562.8
1073.64	561.2
1074.03	557.6
1074.4	554.4
1074.79	551.4
1075.19	562.4
1075.56	565
1075.95	566.2
1076.34	556.4
1076.72	556.8
1077.11	567.2
1077.48	579.4
1077.88	566.8
1078.25	566.8
1078.64	577
1079.02	567.4
1079.41	567
1079.78	558
1080.18	550.4
1080.55	614
1080.95	557.2
1081.32	556.4
1081.72	568.6
1082.09	565
1082.49	557
1082.86	565.8
1083.24	557.4
1083.63	554
1084.01	556.6
1084.38	570.8
1084.78	554.8
1085.16	563.8
1085.55	569
1085.93	575
1086.31	559.4
1086.7	588.2
1087.08	559
1087.46	555.6
1087.83	556.2
1088.23	563.2
1088.61	556.6
1088.99	568.2
1089.36	550.4
1089.76	563.2
1090.14	557.2
1090.52	554.6
1090.9	549.2
1091.27	575.2
1091.67	580.4
1092.05	563.2
1092.43	553.8
1092.81	568.4
1093.19	567.8
1093.57	555.6
1093.95	553.8
1094.35	571.2
1094.73	569.2
1095.11	558
1095.49	557.4
1095.87	557.8
1096.25	567.6
1096.63	565.8
1097.01	561.8
1097.39	563.8
1097.77	559
1098.15	559
1098.53	556.4
1098.91	557.2
1099.29	559
1099.68	570.8
1100.06	565.6
1100.44	563
1100.82	558.4
1101.18	566.8
1101.56	563.6
1101.95	554.2
1102.33	562.2
1102.71	555.2
1103.1	551.2
1103.48	548.2
1103.86	539.4
1104.22	563
1104.61	555.2
1104.99	555
1105.38	557.8
1105.76	559
1106.12	557.8
1106.51	595
1106.89	563.6
1107.26	568.2
1107.64	558.2
1108.03	563.2
1108.41	560.6
1108.78	558.8
1109.16	556.8
1109.55	566.4
1109.91	555.4
1110.3	548
1110.69	571.6
1111.05	560
1111.44	562.8
1111.8	562.8
1112.19	560
1112.58	565
1112.94	559.6
1113.33	556
1113.7	551
1114.09	556.8
1114.45	558
1114.84	553.4
1115.21	565.8
1115.6	557
1115.96	560.2
1116.35	564.8
1116.72	557.8
1117.11	569.6
1117.48	564.6
1117.85	558.4
1118.24	575
1118.6	560
1118.99	549.6
1119.36	567.2
1119.73	560
1120.12	559.4
1120.49	552.6
1120.86	573.2
1121.25	563.2
1121.62	553.8
1121.99	550.4
1122.38	574.8
1122.76	565.8
1123.13	555
1123.5	563.4
1123.89	561.8
1124.26	544
1124.63	567.4
1125	559.4
1125.4	557.4
1125.77	558.2
1126.14	543.4
1126.51	562.6
1126.88	566.6
1127.26	554
1127.63	550.8
1128.02	561.4
1128.4	550.8
1128.77	557.6
1129.14	557.4
1129.52	565.6
1129.89	564.2
1130.26	558
1130.64	560.4
1131.01	554
