#lambda/nm	C1
208.295	552.6
208.67	498.2
209.045	449.6
209.419	453.2
209.794	598.8
210.169	589.6
210.544	692.8
210.919	609.2
211.295	592.4
211.67	596.6
212.045	591.4
212.421	589.6
212.796	631.6
213.172	592.6
213.547	593.2
213.923	595.2
214.299	597.8
214.675	600.8
215.051	596
215.427	604.4
215.803	607.2
216.179	606.2
216.555	591.2
216.932	595.8
217.308	596.6
217.684	599.2
218.061	604.6
218.438	605.4
218.814	592.8
219.191	598.8
219.568	599
219.945	596.6
220.322	598.8
220.699	600
221.076	599.4
221.453	602
221.83	594.2
222.208	588.6
222.585	598.8
222.962	598.8
223.34	593.2
223.717	594.8
224.095	597
224.473	592.2
224.851	592.2
225.229	594.4
225.607	611.4
225.985	596.2
226.363	588
226.741	596.2
227.119	596.2
227.497	608
227.876	584
228.254	601.6
228.633	609.2
229.011	596.4
229.39	605.2
229.769	602.2
230.148	604.8
230.527	617.2
230.905	596.4
231.284	601.8
231.664	595.6
232.043	611
232.422	602.4
232.801	596
233.181	605
233.56	596.6
233.94	588.2
234.319	588.2
234.699	602.2
235.079	631.2
235.458	624.8
235.838	617.6
236.218	587.8
236.598	588
236.978	591.4
237.358	588.4
237.738	593.6
238.119	598
238.499	590.4
238.88	600.2
239.26	606
239.641	581.2
240.021	592.2
240.402	592.2
240.783	592.4
241.163	597.6
241.544	593.6
241.925	601.6
242.306	604.8
242.687	599.6
243.069	606.6
243.45	596.4
243.831	590.8
244.212	591.4
244.594	631.8
244.975	600.2
245.357	596.8
245.739	596
246.12	593.8
246.502	603.8
246.884	599.8
247.266	593
247.648	595.6
248.03	621
248.412	603.6
248.794	599.6
249.176	596.8
249.559	601.6
249.941	592
250.323	590
250.706	585.6
251.089	590.2
251.471	606.2
251.854	605.2
252.237	585.8
252.62	607
253.002	597.6
253.385	590.6
253.769	601
254.152	598.8
254.535	602
254.918	586
255.301	592.6
255.685	593.8
256.068	588.2
256.452	615.6
256.835	603.4
257.219	600.8
257.603	607.4
257.986	583.4
258.37	605.6
258.754	589.6
259.138	600.4
259.522	599.2
259.906	590.2
260.29	599.8
260.675	594.2
261.059	593.8
261.443	595.2
261.828	601.2
262.212	599.6
262.597	592.2
262.981	591.2
263.366	598.6
263.751	592.8
264.136	589.8
264.521	589
264.906	582.8
265.291	600.4
265.676	589.8
266.061	606
266.446	602.8
266.831	585.8
267.217	606.2
267.602	595.4
267.987	601.2
268.373	590.2
268.759	603.6
269.144	598.6
269.53	598.6
269.916	595.8
270.302	585.8
270.688	593.4
271.074	600.8
271.46	603.4
271.846	618.4
272.232	589.8
272.618	595.4
273.004	599.8
273.391	607.8
273.777	614.6
274.164	597.8
274.55	602.8
274.937	596.2
275.324	604.2
275.71	598.4
276.097	597.4
276.484	589.6
276.871	600.8
277.258	603
277.645	586.6
278.032	594.8
278.419	602
278.807	597.8
279.194	586.4
279.581	592.4
279.969	608.6
280.356	607.6
280.744	593.4
281.131	618.6
281.519	602.2
281.907	592
282.295	596.8
282.682	608.6
283.07	601.4
283.458	607.4
283.846	603.6
284.235	605.4
284.623	602
285.011	592.8
285.399	600.8
285.788	596.4
286.176	592.4
286.565	608
286.953	595.6
287.342	594.4
287.731	591.2
288.119	590.2
288.508	597.6
288.897	607.6
289.286	587.2
289.675	595
290.064	606.2
290.453	596.4
290.821	597
291.21	611.2
291.599	591.8
291.989	592
292.378	606
292.768	606
293.157	600.6
293.547	602.4
293.936	592.6
294.326	591.6
294.716	593.4
295.106	597.4
295.496	602.2
295.886	604
296.276	598.4
296.666	589.4
297.056	593.2
297.446	585.8
297.836	607.4
298.227	595.6
298.617	599.4
299.008	607.8
299.398	589
299.789	582.6
300.179	589.8
300.57	603
300.961	586.4
301.352	591.2
301.742	598.8
302.133	602.2
302.524	595.4
302.915	601
303.307	591.8
303.698	606
304.089	596.2
304.48	602
304.872	608
305.263	591.8
305.655	582.4
306.046	611.2
306.438	607
306.829	589.2
307.221	613.6
307.613	596.8
308.005	607
308.397	607.2
308.789	621.6
309.181	619
309.573	611.8
309.965	606.2
310.357	588.4
310.749	608.2
311.142	595.4
311.534	603.8
311.926	598
312.319	593.2
312.711	592.4
313.104	599.8
313.497	591.2
313.889	634
314.282	617.2
314.675	612.2
315.068	595.6
315.461	595.4
315.854	618.8
316.247	603.4
316.64	595.6
317.033	598.2
317.405	604.4
317.798	592.8
318.192	604.6
318.585	592.6
318.979	603.6
319.372	590.4
319.766	591.6
320.16	605
320.553	604.2
320.947	613.6
321.341	597.4
321.735	599.2
322.129	582.8
322.523	616
322.917	588.2
323.311	613
323.705	600.4
324.099	594.6
324.494	612.4
324.888	611.2
325.282	598
325.677	605
326.071	605.2
326.466	608.8
326.861	603.8
327.255	607
327.65	612
328.045	615.4
328.44	601.6
328.835	597.2
329.23	594
329.625	615
330.02	601.2
330.415	620.6
330.81	597.8
331.206	600.8
331.601	598.4
331.996	609.2
332.37	607.8
332.766	592.6
333.161	618.2
333.557	597.6
333.953	599.8
334.348	829.8
334.744	606
335.14	589
335.536	595.8
335.932	616.8
336.328	598.6
336.724	599.8
337.12	597.6
337.516	596.6
337.913	597.6
338.309	606.2
338.705	597.8
339.102	600.6
339.498	592.8
339.895	606.4
340.291	590.8
340.688	596
341.085	587.8
341.481	594.2
341.878	592.2
342.275	613.6
342.672	585.4
343.069	595.6
343.466	585.8
343.842	601.6
344.239	595.8
344.636	598.4
345.033	592.2
345.431	588
345.828	598
346.225	589.4
346.623	625.2
347.02	596
347.418	598
347.816	605.8
348.213	583.4
348.611	603
349.009	594.8
349.407	606.4
349.805	590.4
350.203	579.4
350.601	607
350.999	591.4
351.397	627
351.795	597.4
352.193	596.6
352.57	587
352.969	602.6
353.367	580.2
353.766	585.4
354.164	590.2
354.563	594.8
354.961	593.6
355.36	590.6
355.759	594.4
356.158	581
356.557	585.2
356.956	587.6
357.355	590
357.754	599
358.153	601.8
358.552	612.2
358.951	587.2
359.35	594.2
359.75	593.2
360.149	586.2
360.527	582.8
360.926	581.6
361.326	598.2
361.726	595.4
362.125	590.8
362.525	599
362.925	590.6
363.325	593.2
363.724	590.4
364.124	587.2
364.524	588.8
364.924	597.2
365.324	599.2
365.725	578.6
366.125	600
366.525	592.2
366.904	588.8
367.304	584
367.705	598.2
368.105	597.6
368.506	593
368.906	590.6
369.307	595
369.708	590.4
370.108	573.8
370.509	599
370.91	587
371.311	598.2
371.712	595.6
372.113	593.8
372.514	586.2
372.894	595.6
373.295	580
373.696	597.6
374.097	592.4
374.499	616
374.9	592.8
375.301	585.6
375.703	594.6
376.105	584.4
376.506	589.4
376.908	594.2
377.309	589.6
377.711	593
378.113	584.8
378.493	591.4
378.895	579.6
379.297	590.6
379.699	579.6
380.102	590.2
380.504	593.6
380.906	577.6
381.308	618.2
381.71	592.2
382.113	602.8
382.515	584
382.918	591
383.299	594
383.701	599.4
384.104	589.2
384.507	575.2
384.909	595.2
385.312	579.4
385.715	582.2
386.118	591.4
386.521	580
386.924	605.6
387.327	591.2
387.709	579.8
388.112	575.6
388.515	583.6
388.918	596.2
389.322	590.4
389.725	588.2
390.129	606.4
390.532	597.8
390.936	590.4
391.339	586
391.743	592.2
392.125	591.6
392.529	595.4
392.933	593.6
393.337	605
393.74	589
394.144	588.2
394.548	591.2
394.953	586.8
395.357	598.6
395.761	587.6
396.144	590.8
396.548	591.8
396.952	592.2
397.357	594.4
397.761	588.4
398.166	584.8
398.57	577
398.975	580
399.379	599
399.763	629.4
400.168	587.8
400.572	586.6
400.977	582.4
401.382	604.2
401.787	595.2
402.192	601.6
402.597	602
403.002	577.8
403.386	599
403.791	610.8
404.197	592.8
404.602	586.4
405.007	584
405.413	582.4
405.818	593.8
406.224	582.6
406.608	589.6
407.014	577.8
407.42	604.4
407.825	592.2
408.231	596.4
408.637	598
409.043	607.8
409.449	584.2
409.834	582.2
410.24	595
410.646	598.4
411.052	597.2
411.458	586
411.865	602.8
412.271	601
412.677	595
413.062	601.8
413.469	580.4
413.875	603.4
414.282	604.6
414.689	589.6
415.095	599.8
415.502	582.2
415.888	585.8
416.294	573
416.701	623.2
417.108	583
417.515	597.6
417.923	596.4
418.33	610.4
418.715	593.8
419.123	587.6
419.53	588
419.937	592.8
420.345	604
420.752	589.4
421.16	606.6
421.546	598.6
421.953	604.2
422.361	586.4
422.769	587.6
423.177	586.2
423.585	608.6
423.992	607
424.379	609
424.787	603.6
425.195	611.8
425.603	590.6
426.011	599.8
426.419	609.4
426.806	593.4
427.214	598.8
427.623	604.2
428.031	612.4
428.44	599.6
428.848	607.2
429.235	614.6
429.644	608.6
430.053	612.4
430.461	628.8
430.87	638
431.279	623.4
431.666	617.6
432.075	625.6
432.484	637.8
432.893	637.8
433.302	668
433.711	688.8
434.099	664
434.508	664.6
434.918	665.8
435.327	691.8
435.737	685.4
436.125	695.2
436.534	711
436.944	712.2
437.353	736
437.763	740.2
438.173	729.8
438.561	762
438.971	739
439.381	756.4
439.791	772
440.201	762.6
440.589	801.2
440.999	800.8
441.409	804.4
441.819	784.8
442.23	821.6
442.619	832.8
443.029	831.2
443.439	825.2
443.85	845
444.26	840.4
444.649	853.4
445.06	830
445.471	841.6
445.881	860.6
446.292	874.2
446.682	872.2
447.092	846.2
447.503	905.8
447.914	863.2
448.325	873.6
448.715	878.2
449.126	869.8
449.537	869.2
449.948	871.4
450.338	885.2
450.75	897.4
451.161	880.4
451.572	885
451.984	875.8
452.374	879.4
452.786	884.6
453.197	909.8
453.609	913.4
453.999	880.8
454.411	888.8
454.823	909
455.235	898.4
455.647	897.2
456.037	896.2
456.449	885.6
456.862	909.2
457.274	904
457.665	891.8
458.077	910
458.489	932.2
458.902	909.2
459.293	913.4
459.705	912
460.118	911
460.53	912.6
460.921	905
461.334	909.8
461.747	900.6
462.16	929.4
462.551	918.2
462.964	914
463.377	896
463.79	909.8
464.182	924
464.595	909.6
465.008	919.4
465.421	911
465.813	896.2
466.226	905.8
466.64	904.2
467.053	950.4
467.445	917.4
467.859	935
468.272	920
468.686	936.2
469.078	908
469.492	907.4
469.906	921.2
470.298	911.8
470.712	909
471.126	935.4
471.54	897.6
471.933	913
472.347	902.8
472.761	903.6
473.175	902.8
473.568	903
473.982	880.4
474.397	904
474.79	902.6
475.204	897.4
475.619	899
476.033	892.6
476.426	885
476.841	884.2
477.256	912.6
477.649	881.6
478.064	883.4
478.479	885.6
478.872	885.8
479.287	867
479.702	878.2
480.118	879.4
480.511	878.6
480.927	870
481.342	874.6
481.736	871.6
482.151	870.2
482.566	880
482.96	875.4
483.376	878.6
483.792	878.2
484.186	874
484.602	865.6
485.017	870.2
485.412	862.2
485.827	859
486.243	861.8
486.638	882.6
487.054	862
487.47	868.4
487.865	854.2
488.281	842.2
488.697	848.6
489.092	844.4
489.508	838.4
489.925	848.6
490.32	835.8
490.736	845.4
491.153	842.8
491.548	844.8
491.964	854
492.381	828.4
492.776	828.6
493.193	834
493.61	834.4
494.006	823.4
494.422	838.4
494.84	812.8
495.235	828
495.652	827.2
496.069	819.2
496.465	804.6
496.883	807.8
497.3	838.2
497.696	806.8
498.113	811
498.509	782.8
498.927	795.6
499.344	790.4
499.741	793.2
500.158	809.2
500.576	801.8
500.973	784.8
501.39	777.2
501.787	785.6
502.205	796.6
502.623	784
503.02	776.2
503.438	776.8
503.856	783.6
504.253	775.6
504.671	778.6
505.068	765
505.486	768.8
505.905	786.4
506.302	769
506.72	774.8
507.118	750.4
507.536	758
507.955	758.4
508.352	758
508.771	753
509.169	756.2
509.587	743.2
510.006	752.4
510.404	737.6
510.823	746.8
511.221	746.4
511.64	742
512.038	747
512.457	739
512.877	741
513.275	722.6
513.694	735
514.092	730
514.512	737.8
514.91	739.8
515.33	727.8
515.749	731.8
516.148	729.2
516.568	727.6
516.966	716.2
517.386	713.6
517.785	725.4
518.205	712.2
518.603	710
519.024	702.4
519.444	715.2
519.843	718.8
520.263	720.2
520.662	725
521.082	705.6
521.481	708.8
521.902	702.2
522.301	701
522.722	696.8
523.121	702.6
523.542	696.8
523.963	699.8
524.362	694.4
524.783	697
525.183	695.6
525.604	697.8
526.003	686.4
526.425	677.8
526.824	699.8
527.246	697.8
527.646	705.8
528.067	688.6
528.467	684
528.888	693.2
529.289	687.4
529.71	689.4
530.11	682.4
530.532	678
530.932	670.2
531.354	667.2
531.755	699
532.176	672.4
532.577	666.6
532.999	665.6
533.4	672.4
533.822	680.4
534.223	680.8
534.645	668.4
535.046	669.4
535.468	677.2
535.869	677.2
536.292	668.2
536.693	691.8
537.115	660.8
537.516	668
537.939	664.6
538.34	675.8
538.742	667.2
539.165	653.8
539.566	661.2
539.989	649
540.391	657.6
540.814	654.4
541.216	658.2
541.639	657.4
542.041	665
542.464	647.8
542.866	653.6
543.268	648
543.691	655.4
544.093	654.4
544.517	666.8
544.919	640.6
545.343	662.8
545.745	642.8
546.147	646.8
546.571	636
546.974	629.2
547.398	643
547.8	656.6
548.224	644.8
548.627	629
549.03	643.2
549.454	628.8
549.857	642.8
550.281	636.6
550.684	637.4
551.087	644.2
551.512	641.2
551.915	638.8
552.34	635.6
552.743	629.6
553.146	626.4
553.571	633.8
553.975	651.2
554.399	630.2
554.803	667.8
555.207	628.2
555.632	623.4
556.036	635.8
556.461	625
556.865	626.2
557.268	627.2
557.694	626
558.098	634.6
558.502	634.2
558.927	621.4
559.332	623
559.736	617.6
560.162	633.4
560.566	614.2
560.992	629.4
561.396	622.8
561.801	624.4
562.227	615.8
562.631	619.8
563.036	619.8
563.462	630.6
563.867	618.2
564.272	597.8
564.698	624.8
565.103	614.6
565.508	628.4
565.935	615
566.34	610.2
566.745	639.8
567.172	611.6
567.577	628.2
567.982	623.6
568.409	619.4
568.815	600.6
569.22	608.4
569.626	630.4
570.053	606.6
570.459	613
570.865	616.8
571.292	619.8
571.698	615.4
572.104	601.4
572.531	605.2
572.937	614.8
573.343	603.8
573.75	609.2
574.177	608.4
574.583	618.6
574.99	604
575.396	606.6
575.824	606.6
576.231	617.6
576.637	605.6
577.065	632.2
577.472	602.2
577.879	602
578.286	610.6
578.714	591
579.121	604.2
579.528	603.8
579.935	610
580.364	596.2
580.771	588.4
581.178	594
581.585	609.8
582.014	611.8
582.421	598.2
582.829	593.6
583.236	601.2
583.644	597.8
584.073	597
584.481	599.4
584.889	593.8
585.296	601.8
585.726	595.8
586.134	592.8
586.542	584.4
586.95	614.2
587.358	586.2
587.787	599.6
588.196	607
588.604	592.2
589.012	594.2
589.421	582.4
589.851	592.4
590.259	592.6
590.668	585.8
591.076	624.4
591.485	585.6
591.894	593
592.324	601.2
592.733	604
593.142	583.4
593.551	581.2
593.96	592.6
594.369	583.6
594.8	581.6
595.209	595
595.618	572.6
596.028	588.2
596.437	580.2
596.847	593.8
597.256	584.4
597.687	600.6
598.097	589.4
598.507	584.4
598.917	586.8
599.327	591
599.736	595.8
600.146	606.4
600.556	588.8
600.988	599.4
601.398	589
601.808	598.6
602.219	587.6
602.629	589
603.039	595.2
603.45	604.4
603.86	589
604.271	595.2
604.703	586
605.114	583.8
605.525	582.4
605.935	594
606.346	603.8
606.757	591.6
607.168	587
607.579	589.4
607.99	586.6
608.402	588.4
608.813	585.8
609.224	593.2
609.636	573.8
610.047	575.6
610.48	586.8
610.892	591.4
611.303	593.6
611.715	582.6
612.127	575
612.539	581.8
612.95	577.4
613.362	570.6
613.774	581.6
614.186	581.4
614.599	586
615.011	581.4
615.423	586.2
615.835	583
616.248	578.6
616.66	585.6
617.073	580
617.485	583.2
617.898	592.2
618.311	582.8
618.723	585.4
619.136	612.2
619.549	603.6
619.962	609.2
620.375	583.2
620.788	587.4
621.201	582.8
621.614	597
622.028	585.2
622.441	586.6
622.854	605.6
623.268	583.8
623.681	594
624.095	596.2
624.509	601.6
624.922	594.6
625.336	570.6
625.728	589.8
626.142	592.6
626.556	603
626.97	590.8
627.384	583
627.799	588.8
628.213	600.8
628.627	588.6
629.041	585
629.456	588.2
629.87	591.6
630.285	596.8
630.699	591
631.093	583.8
631.507	587.4
631.922	588.8
632.337	599.4
632.752	577.8
633.167	585.6
633.582	588
633.997	580.2
634.412	582
634.806	588
635.221	583
635.637	600.6
636.052	578.2
636.468	589
636.883	600
637.299	583.2
637.715	580.2
638.109	577.8
638.525	579.2
638.941	601
639.357	590.6
639.773	595.8
640.189	577.8
640.584	583
641	584.2
641.416	574
641.832	581.6
642.249	568.6
642.665	578
643.06	589.4
643.477	583.4
643.894	569
644.31	584.6
644.727	575.4
645.123	577.2
645.54	567.6
645.957	586
646.374	581.2
646.77	584
647.187	610
647.604	585.8
648.021	573.4
648.439	575.2
648.835	578.2
649.252	582.6
649.67	582.4
650.088	582.6
650.484	580.6
650.902	587.2
651.32	582.8
651.738	582.4
652.134	572.2
652.552	586.6
652.971	586.2
653.389	580
653.786	596.2
654.204	591.8
654.622	578
655.019	582.2
655.438	585.6
655.857	579
656.275	580.8
656.673	570.2
657.091	585.2
657.51	573.4
657.908	589.2
658.327	591.8
658.746	570
659.144	576.4
659.563	593.2
659.982	583.2
660.38	574
660.8	574.6
661.219	589.4
661.617	584
662.037	580.8
662.457	587.4
662.855	564.8
663.275	603.8
663.695	578.8
664.094	575.4
664.514	577.4
664.934	567.8
665.333	582.6
665.753	567.8
666.152	572.4
666.572	565
666.993	588
667.392	569.2
667.812	574.6
668.212	573
668.632	584.8
669.053	573.8
669.453	581.6
669.874	578.8
670.273	581.6
670.694	569.8
671.116	578.8
671.515	587.2
671.937	576
672.337	574.8
672.758	568.8
673.158	584.4
673.58	569.2
673.98	576.4
674.402	588.4
674.824	574.4
675.224	572.8
675.646	566.8
676.047	573.4
676.469	581.6
676.869	573
677.292	582.4
677.693	568.8
678.115	571.2
678.516	585.6
678.939	565.8
679.34	577.2
679.762	586.4
680.164	580
680.586	563.2
680.988	585
681.411	589.2
681.812	563.8
682.236	560
682.637	566
683.061	562.8
683.462	574.8
683.864	573.2
684.288	577.6
684.69	561.2
685.114	575.4
685.516	586
685.94	558.4
686.342	578.4
686.766	568.2
687.168	567.8
687.571	589.2
687.995	569.8
688.398	556.6
688.822	564.6
689.225	582.8
689.628	590.6
690.052	573.4
690.456	571.4
690.88	571.6
691.284	559.6
691.687	580
692.112	566.8
692.515	569.6
692.919	574
693.344	573
693.747	566.2
694.173	572.6
694.577	580.8
694.98	568.8
695.406	576.2
695.81	577.8
696.214	577.6
696.64	578.2
697.044	582.2
697.448	585
697.874	576.2
698.279	573
698.684	562.4
699.11	562.2
699.514	561.6
699.919	566.6
700.324	563.6
700.75	574
701.156	570
701.561	583.4
701.987	579.6
702.393	579.6
702.798	576.8
703.203	572
703.63	559.8
704.036	576.8
704.442	563
704.847	564
705.274	581.2
705.68	573.4
706.086	574.6
706.492	562.6
706.92	565.2
707.326	579.4
707.732	572.4
708.139	561.2
708.545	569.4
708.973	571.8
709.38	572.6
709.786	566.8
710.193	587.2
710.6	572.8
711.028	566.2
711.435	571.6
711.842	570
712.249	567
712.656	571.8
713.064	580.8
713.492	565.6
713.9	571
714.307	564.4
714.715	567.8
715.123	571.4
715.53	572.4
715.938	577
716.367	576.6
716.775	565.8
717.184	562
717.592	577.2
718	577.2
718.408	603.6
718.816	609.2
719.225	566.6
719.633	565.4
720.042	558.2
720.472	570
720.881	597.2
721.29	578.2
721.699	556.8
722.108	573.8
722.517	573.2
722.926	568.8
723.335	582.2
723.744	568
724.154	573.2
724.563	576.4
724.973	577.8
725.382	569.6
725.792	571.2
726.202	559.4
726.612	592.4
727.022	566.6
727.432	569.6
779.813	575.2
780.223	614.4
780.634	563.2
781.044	562.4
781.454	566.4
781.865	579.2
782.276	558.6
782.686	578.8
783.097	572.6
783.508	565
783.919	579.8
784.33	577.2
784.741	585.4
785.152	571.2
785.563	562.4
785.974	561.2
786.386	570.2
786.776	566
787.188	571.8
787.599	567.6
788.011	577
788.423	573
788.835	564.8
789.247	558.8
789.659	557.2
790.071	566
790.483	596.6
790.874	560.6
791.286	569.8
791.699	554.8
792.111	564.6
792.524	566
792.937	566.2
793.349	566.8
793.741	558.8
794.154	564.4
794.567	581.4
794.98	569.2
795.393	552.8
795.785	575.8
796.198	563.4
796.612	569.8
797.026	567.6
797.439	550.8
797.831	559.4
798.245	554.8
798.659	569.2
799.073	568.2
799.487	563.6
799.88	571
800.294	570.8
800.708	574.8
801.123	572
801.516	583.6
801.93	561.8
802.345	559.6
802.76	565.6
803.153	577.8
803.568	578.8
803.983	578.8
804.377	572
804.792	558
805.207	563.2
805.601	564
806.016	600.2
806.432	553.8
806.826	600.2
807.242	576.2
807.658	574.8
808.052	559.6
808.468	564.6
808.884	563.6
809.279	563
809.695	582.8
810.111	581.4
810.506	567.6
810.922	584.4
811.339	567.6
811.734	568
812.151	568.4
812.546	566.4
812.963	566.6
813.38	566.4
813.776	572.4
814.193	587.8
814.589	567.2
815.006	560.8
815.402	563.6
815.82	566.2
816.237	565.2
816.633	569.8
817.051	565
817.448	575.8
817.866	554.6
818.262	582.6
818.68	561
819.077	566.6
819.495	573.8
819.892	594.2
820.311	564.6
820.708	563.4
821.127	568.4
821.524	573.2
821.943	571.4
822.34	574.4
822.759	572
823.157	563.8
823.576	575.8
823.974	570.4
824.393	591.2
824.791	564.4
825.189	559.8
825.609	566.6
826.007	564.4
826.427	558.4
826.826	567
827.246	570.8
827.644	561.2
828.043	576
828.463	556.8
828.862	573
829.261	572
829.682	550.6
830.081	569.6
830.502	564.6
830.901	568.2
831.301	572
831.722	555.2
832.121	563.6
832.521	559.8
832.943	558.2
833.342	575.2
833.742	553
834.164	564.4
834.564	561.2
834.965	571.4
835.386	563.8
835.787	564.2
836.188	566.6
836.588	568
837.01	565.8
837.411	559.6
837.812	559.4
838.213	572.4
838.636	560
839.037	627.6
839.438	570.2
839.84	568
840.263	571.4
840.664	574.8
841.066	570
841.468	568
841.891	566
842.293	579.6
842.695	573.8
843.098	578
843.5	562.4
843.902	576.2
844.326	568.2
844.729	571.8
845.131	571.4
845.534	571.2
845.937	578.6
846.34	584
846.764	563.4
847.167	568.2
847.571	565.2
847.974	567.6
848.377	570
848.781	601.4
849.184	577.2
849.588	561.8
849.992	550
850.396	566.8
850.821	588.4
851.225	567.4
851.63	564.6
852.034	575.8
852.438	569.2
852.843	637.2
853.247	570.6
853.652	560.4
854.057	581.6
854.462	573.6
854.867	565.2
855.272	594.4
855.677	571
856.082	555.2
856.487	560.6
856.893	573.6
857.298	563.6
857.704	561
858.11	570.8
858.516	571.8
858.922	567.4
859.328	573.6
859.734	572.6
860.14	572.8
860.525	576.6
860.931	558.2
861.338	560.4
861.745	572.4
862.151	569.4
862.558	562.6
862.965	557.8
863.372	572.2
863.779	568.8
864.186	581.4
864.572	568.2
864.98	587
865.387	592.6
865.795	562.2
866.203	573.4
866.61	562.2
867.018	572.6
867.405	577
867.813	566
868.221	562.8
868.63	565
869.038	567.4
869.425	608.2
869.834	563.8
870.243	562
870.652	567
871.039	560.8
871.448	562.4
871.857	576.2
872.266	568.6
872.654	564.6
873.064	574
873.473	577.4
873.883	566.4
874.271	556.8
874.681	577.2
875.091	559.6
875.48	571.4
875.89	573
876.3	561.2
876.689	558.2
877.1	573.2
877.51	571.8
877.9	586
878.31	557.4
878.721	597.2
879.111	571
879.522	567.6
879.933	565.8
880.323	561.4
880.734	556.6
881.125	565.8
881.536	566.4
881.948	551.6
882.338	561.8
882.75	574.6
883.141	563.8
883.553	565.2
883.944	586.4
884.356	570
884.769	552
885.16	557.4
885.573	572
885.964	554.6
886.377	569
886.768	559.6
887.181	561.8
887.573	558
887.987	564.4
888.378	576.6
888.792	564.6
889.184	603.4
889.598	553
889.99	566.2
890.383	567.2
890.797	558.8
891.19	573.6
891.604	558.2
891.997	550.8
892.411	561.2
892.805	561
893.198	563.2
893.613	558
894.006	569.2
894.421	555.8
894.815	570.2
895.209	565
895.624	598.6
896.018	579.6
896.412	557.2
896.828	564.4
897.222	567
897.617	556.2
898.033	579.4
898.427	569.2
898.822	565.6
899.239	562.6
899.634	555.4
900.029	577.8
900.424	558.4
900.841	554.6
901.236	576.4
901.632	571.6
902.027	615
902.445	566.8
902.841	562.8
903.237	564
903.633	582.4
904.05	564.4
904.447	570.4
904.843	568.6
905.24	562.8
905.636	554.6
906.033	567.6
906.451	571.4
906.848	557
907.246	557.6
907.643	564.8
908.04	568.8
908.438	572
908.835	569
909.254	563
909.652	570.2
910.05	558.2
910.448	559.8
910.846	565.6
911.244	567.2
911.643	565.4
912.041	561.4
912.44	573
912.839	564
913.237	561.2
913.636	565.4
914.035	568.8
914.434	560.6
914.834	568.8
915.233	572.6
915.633	563.6
916.032	564.4
916.432	560.2
916.832	571.8
917.232	561.8
917.632	562
918.032	571.4
918.432	566
918.833	559.4
919.233	562.4
919.634	554
920.035	570.6
920.436	559.2
920.837	574.2
921.238	565
921.639	564.2
922.019	562.2
922.42	567.8
922.822	568.4
923.224	554.8
923.625	558.6
924.027	556.8
924.429	578.2
924.81	568.8
925.212	561.8
925.615	566.6
926.017	564.8
926.42	568.6
926.801	561.2
927.204	565.2
927.607	568.8
928.01	573
928.413	567.2
928.795	551.2
929.199	557.8
929.602	556.2
930.006	563
930.388	559.2
930.792	556.6
931.196	574.6
931.579	595.2
931.983	554.8
932.388	599
932.771	551.4
933.176	559.6
933.58	564.2
933.964	569.8
934.369	550
934.774	564.8
935.158	560.6
935.563	560.2
935.947	567
936.353	564.6
936.759	560.8
937.143	559.8
937.549	564.8
937.934	563.4
938.34	582.4
938.746	554.4
939.131	564.8
939.538	559.8
939.923	560.6
940.33	554.4
940.716	560.4
941.123	560.8
941.508	565.6
941.916	571
942.302	568.2
942.709	555.4
943.096	549
943.503	576.2
943.89	563.4
944.298	557.4
944.685	576.4
945.072	556
945.48	567.2
945.867	556.6
946.276	559.4
946.663	587.8
947.051	570.4
947.46	573.2
947.848	562.4
948.257	563.8
948.645	562.6
949.033	560
949.443	559.4
949.831	598.2
950.22	559.2
950.63	568.2
951.018	591
951.407	569
951.796	562.2
952.207	571
952.596	566
952.985	557
953.375	595.4
953.786	563.6
954.176	554.8
954.566	569.6
954.956	555.8
955.367	557.8
955.758	579.4
956.148	555.6
956.539	569.4
956.929	555.6
957.341	556
957.732	558.6
958.123	564.8
958.515	564.4
958.906	571.4
959.297	557.4
959.689	560.2
960.102	559.2
960.494	560
960.886	557.4
961.278	562.2
961.67	588
962.062	588.8
962.455	567.2
962.847	555.6
963.24	551
963.633	562.4
964.026	551.2
964.419	561.4
964.812	574.4
965.206	560.4
965.599	570.4
965.993	563.2
966.386	557.6
966.78	571.4
967.174	570.2
967.569	565
967.963	554
968.357	555.6
968.752	555.4
969.146	557.2
969.541	560.8
969.936	561
970.331	560
970.705	566.6
971.1	562.6
971.496	566.8
971.892	563.4
972.287	558.4
972.683	569
973.079	565.2
973.454	571.4
973.85	557
974.247	569.4
974.643	588.8
975.04	566
975.415	563.8
975.812	551
976.209	570.8
976.607	549
976.982	568
977.38	575.4
977.778	553.8
978.175	556.6
978.552	560
978.95	569.2
979.348	568.2
979.725	598.2
980.123	554.8
980.522	559.4
980.899	554.8
981.298	556.6
981.697	555
982.075	553
982.474	555.4
982.852	564.4
983.251	565.2
983.651	559.2
984.029	567
984.429	563.6
984.808	557
985.208	564.6
985.609	547.4
985.987	553.8
986.388	558.2
986.768	564
987.168	555
987.548	568.2
987.949	574.2
988.329	570.2
988.731	541.2
989.111	560.2
989.491	567
989.893	566
990.273	567.2
990.676	549.4
991.057	556.6
991.459	556.2
991.84	558.4
992.221	559
992.624	577.2
993.006	559.6
993.388	565.6
993.791	563.6
994.173	564.2
994.576	584
994.959	554.8
995.341	553.4
995.724	559.8
996.128	552.2
996.511	561
996.894	561.4
997.298	556
997.681	572.2
998.065	566.4
998.448	553.6
998.854	574.4
999.237	558.6
999.621	566.4
1000.01	572.4
1000.39	555.8
1000.8	554.6
1001.18	562.8
1001.56	566.2
1001.95	566
1002.33	564.4
1002.72	557.8
1003.13	556.4
1003.51	558.2
1003.9	552.6
1004.28	577.4
1004.67	559
1005.06	560.2
1005.44	586.6
1005.83	559.6
1006.21	561.6
1006.6	557.2
1006.99	571.6
1007.37	567.2
1007.76	558.4
1060.12	566
1060.51	553
1060.89	566.2
1061.28	561
1061.67	578.6
1062.06	567.2
1062.45	568.2
1062.83	562.8
1063.22	573.4
1063.61	590.8
1064	565.8
1064.39	560.6
1064.78	557.2
1065.14	569.8
1065.53	554.4
1065.92	552.2
1066.31	560.4
1066.7	565.2
1067.09	576.4
1067.46	559
1067.85	553.6
1068.24	556.2
1068.63	564.2
1069.02	550.4
1069.39	564.4
1069.78	556.4
1070.17	561.6
1070.57	549
1070.93	560.6
1071.33	555.4
1071.72	562
1072.11	552.4
1072.48	550.4
1072.87	557.2
1073.26	568.6
1073.64	556.2
1074.03	555.6
1074.4	558.4
1074.79	558.2
1075.19	551.4
1075.56	560.8
1075.95	563.2
1076.34	557.2
1076.72	553.6
1077.11	559.6
1077.48	565.2
1077.88	560.8
1078.25	560.4
1078.64	567.6
1079.02	560.6
1079.41	565.2
1079.78	553.2
1080.18	556.4
1080.55	601.6
1080.95	559.2
1081.32	558.4
1081.72	558.4
1082.09	559.4
1082.49	556
1082.86	569.6
1083.24	551.6
1083.63	545
1084.01	557.4
1084.38	557
1084.78	547.4
1085.16	557.2
1085.55	570.8
1085.93	572.8
1086.31	544.8
1086.7	585.6
1087.08	557
1087.46	555.2
1087.83	554.2
1088.23	559.4
1088.61	558.2
1088.99	554.2
1089.36	557.8
1089.76	561.2
1090.14	553.8
1090.52	563
1090.9	563.6
1091.27	574.6
1091.67	578
1092.05	566.8
1092.43	549.6
1092.81	560.6
1093.19	565.2
1093.57	560.8
1093.95	552.6
1094.35	559.2
1094.73	567.8
1095.11	556.8
1095.49	558.4
1095.87	558.8
1096.25	574
1096.63	571.4
1097.01	561.4
1097.39	565
1097.77	560.6
1098.15	557
1098.53	551
1098.91	563.8
1099.29	560.2
1099.68	570.2
1100.06	565
1100.44	560.6
1100.82	567.6
1101.18	561.8
1101.56	554.8
1101.95	555.8
1102.33	564.2
1102.71	566
1103.1	556
1103.48	550.4
1103.86	550.8
1104.22	563.2
1104.61	560.8
1104.99	556.2
1105.38	559
1105.76	566.4
1106.12	560.2
1106.51	594.2
1106.89	572.4
1107.26	561.4
1107.64	565.6
1108.03	562
1108.41	563.8
1108.78	564.6
1109.16	565.4
1109.55	565.4
1109.91	548.2
1110.3	554
1110.69	573.8
1111.05	553.8
1111.44	556.8
1111.8	560
1112.19	557.4
1112.58	566.6
1112.94	553
1113.33	555.8
1113.7	558.6
1114.09	557.6
1114.45	554.2
1114.84	568
1115.21	564.8
1115.6	553.2
1115.96	562
1116.35	561
1116.72	552.2
1117.11	558.4
1117.48	545.6
1117.85	554.6
1118.24	570.4
1118.6	556
1118.99	552.8
1119.36	556.4
1119.73	553.8
1120.12	554.2
1120.49	548.4
1120.86	563.4
1121.25	556.8
1121.62	548.8
1121.99	558.4
1122.38	570.6
1122.76	555.4
1123.13	551.6
1123.5	564.6
1123.89	559
1124.26	548.2
1124.63	559.2
1125	553
1125.4	549.4
1125.77	546.4
1126.14	541.2
1126.51	556.2
1126.88	557.8
1127.26	553.6
1127.63	548.4
1128.02	548.4
1128.4	549.2
1128.77	553
1129.14	557
1129.52	557.2
1129.89	562.4
1130.26	548.2
1130.64	553.2
1131.01	552.4
