#lambda/nm	C1
208.295	536
208.67	484
209.045	444.4
209.419	447.8
209.794	608.6
210.169	600.6
210.544	714.4
210.919	616.8
211.295	593.4
211.67	615.8
212.045	610.2
212.421	601
212.796	643.6
213.172	604.2
213.547	601.4
213.923	604.4
214.299	601.6
214.675	607.6
215.051	604.8
215.427	621
215.803	630.8
216.179	616.8
216.555	602.8
216.932	609.8
217.308	611.4
217.684	612.6
218.061	605.2
218.438	606.2
218.814	610
219.191	618.2
219.568	598.4
219.945	607.6
220.322	609.4
220.699	611.6
221.076	615.8
221.453	611.2
221.83	604.6
222.208	599
222.585	596.2
222.962	606.2
223.34	597.8
223.717	610.2
224.095	593.2
224.473	597
224.851	593.6
225.229	591.6
225.607	620.8
225.985	593.6
226.363	604.4
226.741	611.8
227.119	601.6
227.497	615
227.876	592.2
228.254	618.8
228.633	612.8
229.011	608.2
229.39	608
229.769	603.4
230.148	609.2
230.527	621
230.905	610.8
231.284	614.4
231.664	612.2
232.043	619
232.422	610.4
232.801	609.4
233.181	612.6
233.56	605.4
233.94	607.4
234.319	593.4
234.699	601
235.079	641.8
235.458	641.6
235.838	624.2
236.218	598
236.598	598.6
236.978	592.2
237.358	593.4
237.738	600.4
238.119	606
238.499	597.4
238.88	602.4
239.26	615.8
239.641	595.6
240.021	596.6
240.402	596.2
240.783	604.6
241.163	601.4
241.544	608.2
241.925	606.8
242.306	625.8
242.687	608
243.069	609
243.45	614
243.831	607.4
244.212	601.6
244.594	632
244.975	617.4
245.357	610.8
245.739	602.2
246.12	600.6
246.502	626
246.884	607.2
247.266	604.2
247.648	610.8
248.03	623.6
248.412	606.8
248.794	612.6
249.176	603
249.559	621.8
249.941	600.6
250.323	600.2
250.706	605.8
251.089	607.4
251.471	614
251.854	608.6
252.237	605.6
252.62	618.6
253.002	602.8
253.385	612
253.769	627.8
254.152	610.4
254.535	618.6
254.918	595.4
255.301	612.4
255.685	598.8
256.068	596.8
256.452	616.4
256.835	620
257.219	613.8
257.603	621.6
257.986	594.4
258.37	610.8
258.754	594.6
259.138	606
259.522	609
259.906	610.4
260.29	613
260.675	605.8
261.059	613.8
261.443	600.4
261.828	613.2
262.212	605.6
262.597	592.2
262.981	599.2
263.366	621.2
263.751	611.4
264.136	599.4
264.521	609
264.906	596.4
265.291	616
265.676	600.6
266.061	621
266.446	625
266.831	612
267.217	629.6
267.602	605.2
267.987	610
268.373	610.2
268.759	622.2
269.144	611.2
269.53	610.4
269.916	599
270.302	596.2
270.688	612.4
271.074	608
271.46	617.8
271.846	637.6
272.232	606
272.618	596.8
273.004	603
273.391	624
273.777	613.6
274.164	608.6
274.55	618.6
274.937	617
275.324	609
275.71	617
276.097	617.2
276.484	596.6
276.871	614.6
277.258	609.8
277.645	594.6
278.032	602.2
278.419	606
278.807	603
279.194	596.2
279.581	600.2
279.969	607.4
280.356	608
280.744	611.2
281.131	626.8
281.519	612.2
281.907	601.6
282.295	603.4
282.682	610.8
283.07	615
283.458	615.8
283.846	620
284.235	622.8
284.623	612.2
285.011	599.4
285.399	617.8
285.788	603.2
286.176	600.4
286.565	618.2
286.953	599.4
287.342	594.8
287.731	603.4
288.119	601
288.508	608
288.897	610.4
289.286	600
289.675	615.6
290.064	621.2
290.453	604.6
290.821	605
291.21	623.4
291.599	597.4
291.989	608.2
292.378	615.2
292.768	622.8
293.157	611.4
293.547	616.4
293.936	606
294.326	604.8
294.716	612.8
295.106	602.2
295.496	617.2
295.886	615.6
296.276	607
296.666	604.6
297.056	591.6
297.446	602.4
297.836	622.4
298.227	602.4
298.617	605.6
299.008	616.8
299.398	602.6
299.789	604.4
300.179	605
300.57	621.4
300.961	602.6
301.352	600
301.742	618.8
302.133	616.4
302.524	604.4
302.915	608
303.307	605
303.698	618
304.089	613.2
304.48	608.2
304.872	612.2
305.263	607.2
305.655	597.6
306.046	610
306.438	612.8
306.829	598.8
307.221	623.4
307.613	615
308.005	621.8
308.397	625.2
308.789	634.8
309.181	625.6
309.573	626.2
309.965	626.6
310.357	609.2
310.749	616.6
311.142	608.8
311.534	606.6
311.926	609.8
312.319	615
312.711	604.4
313.104	623.6
313.497	605.8
313.889	634.2
314.282	625.2
314.675	627.8
315.068	616.8
315.461	614.2
315.854	638.8
316.247	616.2
316.64	605.2
317.033	612.6
317.405	615.2
317.798	613.8
318.192	620.6
318.585	602.8
318.979	606.6
319.372	597
319.766	598.8
320.16	623.6
320.553	624.8
320.947	622.4
321.341	607.2
321.735	605.4
322.129	592.8
322.523	632.2
322.917	603.2
323.311	612.6
323.705	607
324.099	619.4
324.494	619.4
324.888	610.8
325.282	604.6
325.677	615.6
326.071	615.6
326.466	618.4
326.861	609.8
327.255	617.8
327.65	625.6
328.045	625
328.44	608.2
328.835	609
329.23	595.2
329.625	634.4
330.02	603.6
330.415	625.8
330.81	608.6
331.206	611.2
331.601	601
331.996	616.2
332.37	627.4
332.766	610
333.161	632.8
333.557	602.2
333.953	607.4
334.348	890.4
334.744	608.8
335.14	604.6
335.536	606.8
335.932	619.6
336.328	610
336.724	617.4
337.12	601
337.516	608.8
337.913	604.6
338.309	617.8
338.705	607
339.102	626
339.498	609
339.895	627.2
340.291	606.8
340.688	619
341.085	599
341.481	605.2
341.878	603
342.275	627
342.672	598.2
343.069	595.8
343.466	598.8
343.842	615.2
344.239	603.2
344.636	605.6
345.033	600.6
345.431	600.4
345.828	607.4
346.225	608.2
346.623	642
347.02	603.4
347.418	610.8
347.816	620.4
348.213	597
348.611	612.2
349.009	600.8
349.407	615.8
349.805	596
350.203	596.4
350.601	618
350.999	605.4
351.397	663
351.795	607.2
352.193	611.2
352.57	607.4
352.969	611.8
353.367	598.8
353.766	597
354.164	611.2
354.563	607.6
354.961	605
355.36	609.8
355.759	600.4
356.158	592.4
356.557	608.2
356.956	594.6
357.355	599.4
357.754	604.4
358.153	608.8
358.552	630
358.951	602.4
359.35	617.2
359.75	597.2
360.149	604
360.527	594
360.926	595.4
361.326	605.4
361.726	596.6
362.125	602
362.525	614.8
362.925	602
363.325	609.6
363.724	597.2
364.124	601.8
364.524	598.2
364.924	607.4
365.324	615
365.725	589
366.125	611.4
366.525	598.8
366.904	598
367.304	585.2
367.705	623.8
368.105	613.4
368.506	597
368.906	598.2
369.307	605.2
369.708	614.2
370.108	598.4
370.509	603
370.91	598.2
371.311	604.8
371.712	604.4
372.113	606.6
372.514	592
372.894	601.8
373.295	595.2
373.696	610
374.097	617
374.499	630.4
374.9	605.2
375.301	595.4
375.703	603.6
376.105	592
376.506	601.6
376.908	604.4
377.309	594
377.711	597
378.113	587.6
378.493	590.4
378.895	600
379.297	605.8
379.699	584
380.102	598.2
380.504	595.4
380.906	598.8
381.308	621.4
381.71	603.6
382.113	606
382.515	606.6
382.918	600.8
383.299	602.2
383.701	607.8
384.104	600.4
384.507	579.6
384.909	602.6
385.312	595.8
385.715	597.4
386.118	606
386.521	589.4
386.924	608.8
387.327	593.4
387.709	589
388.112	578
388.515	588.6
388.918	594.4
389.322	603.2
389.725	585.6
390.129	618.4
390.532	606.6
390.936	605.4
391.339	593.4
391.743	604.2
392.125	592.4
392.529	608.6
392.933	606.4
393.337	600.6
393.74	599
394.144	599.2
394.548	597.6
394.953	596
395.357	611.8
395.761	593.8
396.144	600.6
396.548	598
396.952	592.8
397.357	598
397.761	592
398.166	591
398.57	594.8
398.975	585.6
399.379	590.4
399.763	638
400.168	599.8
400.572	599.2
400.977	594.8
401.382	613.4
401.787	613.8
402.192	618
402.597	611.4
403.002	589.8
403.386	611.4
403.791	613.4
404.197	607.8
404.602	606.2
405.007	598.6
405.413	595.6
405.818	600.2
406.224	600.6
406.608	593.2
407.014	597.2
407.42	619
407.825	602.8
408.231	609
408.637	600.8
409.043	610.8
409.449	591.2
409.834	596
410.24	599
410.646	617.2
411.052	610.6
411.458	603.4
411.865	612.6
412.271	612.6
412.677	608.6
413.062	603.4
413.469	597.6
413.875	629.2
414.282	615.8
414.689	603
415.095	612.4
415.502	595
415.888	609.8
416.294	589.8
416.701	640.8
417.108	597.8
417.515	611.4
417.923	596.8
418.33	617.2
418.715	604.6
419.123	597
419.53	597.4
419.937	601.2
420.345	607.2
420.752	595
421.16	616.4
421.546	601.8
421.953	612.8
422.361	588.4
422.769	603.4
423.177	600.4
423.585	620.6
423.992	620
424.379	608.4
424.787	614.8
425.195	613.2
425.603	606.4
426.011	614.8
426.419	614.4
426.806	600.2
427.214	615.8
427.623	612.8
428.031	619.4
428.44	605
428.848	613.6
429.235	618
429.644	610
430.053	609.4
430.461	620.8
430.87	632.4
431.279	620.8
431.666	613.4
432.075	617.8
432.484	626.2
432.893	631.6
433.302	644.2
433.711	666.2
434.099	627.8
434.508	633.2
434.918	640.2
435.327	651.6
435.737	650.6
436.125	655.8
436.534	657
436.944	665
437.353	679.8
437.763	699.4
438.173	677.8
438.561	697.4
438.971	680.4
439.381	699.6
439.791	696
440.201	678.2
440.589	705.6
440.999	721.2
441.409	720
441.819	712.8
442.23	737.2
442.619	739
443.029	733.2
443.439	744.2
443.85	751.2
444.26	751.6
444.649	752
445.06	740.4
445.471	746.8
445.881	748.4
446.292	764.4
446.682	784.4
447.092	756.6
447.503	815.4
447.914	754.8
448.325	767.2
448.715	768.6
449.126	767.4
449.537	770.8
449.948	777.2
450.338	778.4
450.75	785.6
451.161	778.2
451.572	782.2
451.984	780.4
452.374	766
452.786	770.4
453.197	784.2
453.609	792.6
453.999	770.6
454.411	774.8
454.823	796.6
455.235	792.6
455.647	789.6
456.037	797.8
456.449	777.8
456.862	782.8
457.274	780
457.665	768.4
458.077	791.8
458.489	810.2
458.902	796.8
459.293	791
459.705	791.4
460.118	778
460.53	790.8
460.921	787.6
461.334	797.8
461.747	789
462.16	802.8
462.551	793
462.964	798
463.377	783.6
463.79	795.2
464.182	807
464.595	796.2
465.008	799.2
465.421	799.4
465.813	795.4
466.226	796.8
466.64	792.6
467.053	842.8
467.445	810.6
467.859	805.6
468.272	798.2
468.686	813.2
469.078	800.4
469.492	790.6
469.906	795.6
470.298	795.6
470.712	780.2
471.126	841.6
471.54	773.4
471.933	793.2
472.347	772.4
472.761	787.4
473.175	782.4
473.568	781.2
473.982	776.4
474.397	785.8
474.79	782.8
475.204	787.8
475.619	785.4
476.033	792
476.426	793.4
476.841	782.4
477.256	803.6
477.649	778.2
478.064	777.2
478.479	773.2
478.872	787.4
479.287	765
479.702	770.2
480.118	767
480.511	772
480.927	776
481.342	769.6
481.736	785
482.151	773.8
482.566	786.8
482.96	772.4
483.376	771
483.792	769.4
484.186	770.2
484.602	768.8
485.017	766.8
485.412	761.8
485.827	767.2
486.243	759.6
486.638	775.4
487.054	768.6
487.47	774
487.865	761.2
488.281	753
488.697	752
489.092	751.4
489.508	745.2
489.925	764.6
490.32	743.8
490.736	750.6
491.153	750.8
491.548	740.8
491.964	755
492.381	740.2
492.776	753
493.193	751.6
493.61	743.4
494.006	737
494.422	754.6
494.84	737.2
495.235	741.2
495.652	738.8
496.069	732
496.465	739.8
496.883	744.2
497.3	755.2
497.696	732.4
498.113	747.4
498.509	719
498.927	717.2
499.344	732.6
499.741	726.8
500.158	736.2
500.576	747.2
500.973	726.2
501.39	714.6
501.787	718.2
502.205	725
502.623	718.2
503.02	715.8
503.438	717.2
503.856	715.6
504.253	715.4
504.671	716.2
505.068	708.6
505.486	707.2
505.905	728.2
506.302	716.6
506.72	711.6
507.118	694.4
507.536	701.6
507.955	695.4
508.352	707.6
508.771	704.8
509.169	713.2
509.587	690.6
510.006	700
510.404	687.6
510.823	690.4
511.221	697.6
511.64	688.8
512.038	705.4
512.457	680.6
512.877	684.4
513.275	685.2
513.694	687.8
514.092	683.6
514.512	689.6
514.91	687.8
515.33	684.6
515.749	687
516.148	686.6
516.568	675.4
516.966	679.4
517.386	674.6
517.785	675.8
518.205	667.2
518.603	672.2
519.024	662
519.444	679
519.843	680.4
520.263	678.2
520.662	671.4
521.082	665.6
521.481	671.2
521.902	665.4
522.301	673
522.722	677.6
523.121	663.4
523.542	667.2
523.963	664.4
524.362	674.6
524.783	666.4
525.183	671.2
525.604	664.6
526.003	658.6
526.425	646
526.824	667
527.246	669.6
527.646	666.2
528.067	667.8
528.467	660.8
528.888	661.4
529.289	655
529.71	654.8
530.11	663.2
530.532	652
530.932	645
531.354	648.6
531.755	676.8
532.176	656.8
532.577	649.6
532.999	641.2
533.4	644.2
533.822	660.6
534.223	647.2
534.645	648.6
535.046	639
535.468	645.8
535.869	658
536.292	645.8
536.693	669.4
537.115	645.2
537.516	634.6
537.939	644.4
538.34	660.8
538.742	657.4
539.165	637.4
539.566	646.6
539.989	633.4
540.391	642
540.814	634
541.216	642.8
541.639	632
542.041	645.8
542.464	633.4
542.866	627.8
543.268	631.2
543.691	643.8
544.093	643.4
544.517	659.8
544.919	623.6
545.343	654
545.745	626.4
546.147	632.6
546.571	636.6
546.974	621.8
547.398	627.6
547.8	653.8
548.224	621.6
548.627	624.4
549.03	631.4
549.454	618.6
549.857	619.8
550.281	620.2
550.684	613.2
551.087	633.2
551.512	629.4
551.915	631.4
552.34	627.6
552.743	621.6
553.146	618.2
553.571	618.2
553.975	644.8
554.399	620.4
554.803	675.6
555.207	615.6
555.632	619
556.036	630.6
556.461	621.6
556.865	624
557.268	620.8
557.694	620
558.098	620.2
558.502	617.6
558.927	610.8
559.332	624.6
559.736	624.8
560.162	625.4
560.566	610.6
560.992	617.6
561.396	613.8
561.801	617.4
562.227	624.8
562.631	615.4
563.036	616.2
563.462	628
563.867	610.4
564.272	606.4
564.698	619.4
565.103	606
565.508	628.6
565.935	617.4
566.34	608.2
566.745	627.6
567.172	612.8
567.577	630.8
567.982	620.2
568.409	622.2
568.815	599.4
569.22	616.4
569.626	616.8
570.053	589
570.459	604.4
570.865	605.6
571.292	619
571.698	612.2
572.104	599
572.531	605
572.937	618
573.343	606
573.75	601.2
574.177	608.8
574.583	606.2
574.99	611.2
575.396	611.8
575.824	606.4
576.231	617.4
576.637	596.8
577.065	624
577.472	599.6
577.879	607
578.286	620.2
578.714	602.4
579.121	607.6
579.528	613
579.935	613
580.364	604.2
580.771	589.6
581.178	595.6
581.585	600.8
582.014	597.2
582.421	592.8
582.829	592.8
583.236	604
583.644	599.2
584.073	593
584.481	602.4
584.889	594
585.296	610.8
585.726	595
586.134	601.6
586.542	599.4
586.95	610
587.358	589
587.787	593.8
588.196	604.2
588.604	601.2
589.012	601.8
589.421	581
589.851	594.2
590.259	598.4
590.668	592.2
591.076	633.6
591.485	591.8
591.894	597.8
592.324	607.4
592.733	618
593.142	583.6
593.551	591
593.96	602
594.369	584.2
594.8	587.4
595.209	597.4
595.618	582.2
596.028	593
596.437	596
596.847	592.2
597.256	598
597.687	598.8
598.097	595.4
598.507	588
598.917	600
599.327	597.2
599.736	598.6
600.146	597.8
600.556	590
600.988	598.8
601.398	591.4
601.808	612.6
602.219	582
602.629	597.8
603.039	589.6
603.45	626.2
603.86	603.2
604.271	602.6
604.703	598.4
605.114	589.6
605.525	590.8
605.935	601.2
606.346	617.4
606.757	599
607.168	599
607.579	588.4
607.99	599.4
608.402	595
608.813	595
609.224	588.4
609.636	579
610.047	577.2
610.48	586.4
610.892	598.2
611.303	590.2
611.715	582.8
612.127	590.6
612.539	582.2
612.95	586
613.362	585.8
613.774	568.2
614.186	589.2
614.599	594
615.011	601.8
615.423	587.2
615.835	587.8
616.248	584
616.66	593.4
617.073	582.8
617.485	583.4
617.898	597
618.311	586.8
618.723	589.4
619.136	616
619.549	601
619.962	612.4
620.375	578.8
620.788	593.4
621.201	584.8
621.614	595.2
622.028	597.4
622.441	594.2
622.854	600.6
623.268	586.4
623.681	595
624.095	591
624.509	597.8
624.922	595.4
625.336	582.2
625.728	590.8
626.142	604.4
626.556	612
626.97	597
627.384	593.2
627.799	589.8
628.213	595
628.627	588.8
629.041	587.4
629.456	580.4
629.87	583.8
630.285	599.8
630.699	602
631.093	587
631.507	591.4
631.922	592.6
632.337	600.2
632.752	576.8
633.167	586.6
633.582	587.8
633.997	580.6
634.412	583.2
634.806	595
635.221	581.4
635.637	601
636.052	573.2
636.468	584.6
636.883	598.6
637.299	586
637.715	583.8
638.109	590.2
638.525	574.4
638.941	601.6
639.357	585.4
639.773	600.4
640.189	581
640.584	588
641	582.2
641.416	581.8
641.832	589
642.249	587.2
642.665	583.2
643.06	594.2
643.477	599.2
643.894	577.2
644.31	581
644.727	584.6
645.123	595.4
645.54	579.2
645.957	584
646.374	601.8
646.77	587.8
647.187	612.4
647.604	582
648.021	572.6
648.439	579.4
648.835	584.8
649.252	589.4
649.67	586.8
650.088	587.4
650.484	589.2
650.902	588.8
651.32	587.8
651.738	575.4
652.134	587.2
652.552	601.2
652.971	586.6
653.389	581.6
653.786	601.8
654.204	600.4
654.622	581.2
655.019	589.6
655.438	589.6
655.857	585.2
656.275	589.2
656.673	576.2
657.091	589.2
657.51	580.8
657.908	590.6
658.327	599.8
658.746	576.6
659.144	593.4
659.563	600.4
659.982	590.2
660.38	578.2
660.8	588.6
661.219	589.6
661.617	586.8
662.037	582
662.457	597.4
662.855	569.6
663.275	612
663.695	589
664.094	587.6
664.514	590.6
664.934	574.6
665.333	586.8
665.753	570.8
666.152	574.8
666.572	575.6
666.993	593
667.392	574.2
667.812	585.2
668.212	579.4
668.632	594.8
669.053	578.2
669.453	587.8
669.874	580
670.273	577.8
670.694	582.8
671.116	599.2
671.515	591.2
671.937	591.2
672.337	589.8
672.758	571.4
673.158	593.6
673.58	569
673.98	583.6
674.402	596.6
674.824	586.6
675.224	583.2
675.646	579.4
676.047	581.6
676.469	585
676.869	582
677.292	582.4
677.693	580.4
678.115	581.6
678.516	583
678.939	579.2
679.34	583
679.762	591.4
680.164	589
680.586	570.8
680.988	587.4
681.411	600
681.812	582.2
682.236	572
682.637	570.8
683.061	570.4
683.462	578
683.864	574.4
684.288	584.6
684.69	576.8
685.114	588.6
685.516	585
685.94	572.6
686.342	578.2
686.766	572.4
687.168	573.6
687.571	592.8
687.995	577.8
688.398	575
688.822	578.2
689.225	595.8
689.628	599.2
690.052	577
690.456	592.8
690.88	583
691.284	573.6
691.687	584.2
692.112	569.2
692.515	579.2
692.919	586.4
693.344	588.4
693.747	577
694.173	577.4
694.577	597
694.98	580.6
695.406	578.6
695.81	584.4
696.214	580.6
696.64	586.2
697.044	583
697.448	589.6
697.874	583.2
698.279	587.2
698.684	569
699.11	579.6
699.514	579.8
699.919	574.8
700.324	574.4
700.75	580
701.156	582.2
701.561	590.4
701.987	584
702.393	585
702.798	597.6
703.203	581.6
703.63	574
704.036	582.6
704.442	578.6
704.847	582
705.274	581.6
705.68	585.8
706.086	586.4
706.492	571.6
706.92	579
707.326	592
707.732	571.2
708.139	570.2
708.545	562.2
708.973	574.6
709.38	587
709.786	565.6
710.193	587.6
710.6	578.2
711.028	565.4
711.435	577
711.842	576.8
712.249	577.6
712.656	566.8
713.064	590
713.492	569
713.9	574
714.307	592.8
714.715	578.4
715.123	585.6
715.53	581.4
715.938	584
716.367	571
716.775	586.8
717.184	579.4
717.592	581
718	581
718.408	610.6
718.816	612.4
719.225	581
719.633	582.2
720.042	580.6
720.472	577.6
720.881	604
721.29	579.4
721.699	574.6
722.108	595.6
722.517	580.6
722.926	574.4
723.335	590.6
723.744	575.2
724.154	577.4
724.563	582
724.973	586.4
725.382	574.6
725.792	581.8
726.202	562
726.612	594.8
727.022	578.4
727.432	571
779.813	573.6
780.223	612.6
780.634	577
781.044	565.8
781.454	582.2
781.865	589.8
782.276	574.8
782.686	580.8
783.097	575.6
783.508	574
783.919	586
784.33	591
784.741	597.2
785.152	572.8
785.563	559.8
785.974	566.4
786.386	588.2
786.776	574
787.188	585.2
787.599	565.6
788.011	583.6
788.423	585
788.835	572.2
789.247	581
789.659	564.8
790.071	572.2
790.483	620.4
790.874	575.4
791.286	590.8
791.699	577.8
792.111	580.6
792.524	579
792.937	579.8
793.349	572
793.741	579
794.154	575
794.567	593.2
794.98	578.2
795.393	573
795.785	596.2
796.198	579.2
796.612	583.8
797.026	579
797.439	565.8
797.831	575.6
798.245	572
798.659	593.2
799.073	578.6
799.487	575.2
799.88	580.4
800.294	575.2
800.708	576
801.123	582
801.516	596.4
801.93	569
802.345	567.2
802.76	577.6
803.153	586.8
803.568	586.2
803.983	589.2
804.377	584.4
804.792	576
805.207	561.8
805.601	580.4
806.016	608.8
806.432	568.2
806.826	598.6
807.242	586
807.658	578
808.052	580.6
808.468	580
808.884	577.6
809.279	580
809.695	589.6
810.111	588.6
810.506	580.8
810.922	594
811.339	570.4
811.734	577.6
812.151	574.6
812.546	575.8
812.963	580.6
813.38	591.2
813.776	578.8
814.193	597.6
814.589	569.4
815.006	571.4
815.402	570.4
815.82	572.8
816.237	574.4
816.633	590.6
817.051	568.8
817.448	588
817.866	565.8
818.262	595.2
818.68	575.8
819.077	578.6
819.495	580.2
819.892	608.6
820.311	570.6
820.708	582.4
821.127	573.8
821.524	587.2
821.943	581.2
822.34	593.8
822.759	583.6
823.157	579
823.576	590.4
823.974	583.4
824.393	619.6
824.791	572.8
825.189	558.8
825.609	576.2
826.007	579.8
826.427	567.8
826.826	573.6
827.246	571
827.644	561.8
828.043	597.6
828.463	572.4
828.862	580.2
829.261	582
829.682	559.2
830.081	582.4
830.502	575.8
830.901	584.2
831.301	583.6
831.722	559.6
832.121	572.6
832.521	576.2
832.943	567.8
833.342	580
833.742	567.4
834.164	572.6
834.564	563.4
834.965	578.2
835.386	576
835.787	573.6
836.188	571.6
836.588	578
837.01	567.2
837.411	575.6
837.812	587.6
838.213	574.6
838.636	568.6
839.037	636.8
839.438	576.4
839.84	584.4
840.263	585.6
840.664	582.8
841.066	574.8
841.468	584
841.891	576.4
842.293	597.8
842.695	578.6
843.098	580.6
843.5	577.2
843.902	580.8
844.326	579.4
844.729	572.8
845.131	585.4
845.534	580.6
845.937	586
846.34	589
846.764	565.8
847.167	581.6
847.571	569
847.974	585
848.377	577
848.781	618.6
849.184	590.4
849.588	576.2
849.992	574
850.396	582
850.821	594.2
851.225	579.6
851.63	574.2
852.034	587.4
852.438	570.4
852.843	607.2
853.247	566.4
853.652	571
854.057	587.6
854.462	576
854.867	569.8
855.272	602.8
855.677	578.2
856.082	562
856.487	560.6
856.893	571.6
857.298	570.8
857.704	570.4
858.11	581.6
858.516	572
858.922	575.2
859.328	582.8
859.734	580.2
860.14	581.4
860.525	571.4
860.931	564.6
861.338	578.6
861.745	578
862.151	586.2
862.558	573.4
862.965	573.4
863.372	566.4
863.779	575.2
864.186	595.4
864.572	566.4
864.98	592.8
865.387	601.8
865.795	567.4
866.203	574.4
866.61	572.6
867.018	582.6
867.405	577.6
867.813	572.8
868.221	579
868.63	572.6
869.038	584
869.425	617.2
869.834	578.2
870.243	573.2
870.652	575.2
871.039	579.2
871.448	562.8
871.857	581.8
872.266	577.6
872.654	571.2
873.064	567
873.473	580
873.883	571.6
874.271	572.4
874.681	577.6
875.091	570
875.48	580.6
875.89	584.2
876.3	574
876.689	567.4
877.1	571.4
877.51	574.6
877.9	599.8
878.31	574
878.721	605.6
879.111	575.4
879.522	572.4
879.933	565.2
880.323	569.8
880.734	564.8
881.125	575.4
881.536	574.6
881.948	561.6
882.338	574.2
882.75	586
883.141	569.8
883.553	581.4
883.944	601.6
884.356	585.4
884.769	574
885.16	576.8
885.573	572.8
885.964	571.2
886.377	570.2
886.768	570.8
887.181	573.8
887.573	568.8
887.987	573.6
888.378	582.6
888.792	580
889.184	622.4
889.598	572.8
889.99	581.6
890.383	575.8
890.797	569.8
891.19	590.8
891.604	569.6
891.997	562.4
892.411	573.2
892.805	573.8
893.198	576.4
893.613	561.6
894.006	575
894.421	562.6
894.815	574.4
895.209	567.2
895.624	613.6
896.018	587.2
896.412	563
896.828	580.8
897.222	579.6
897.617	561.2
898.033	593
898.427	584.4
898.822	578.6
899.239	565.6
899.634	570.8
900.029	589.2
900.424	566.4
900.841	562.6
901.236	585.6
901.632	581.2
902.027	625.8
902.445	581
902.841	580.4
903.237	576.8
903.633	578.8
904.05	576.6
904.447	573.8
904.843	581.2
905.24	579
905.636	564
906.033	572.2
906.451	590.2
906.848	566.8
907.246	562.8
907.643	573
908.04	573.6
908.438	576
908.835	577.8
909.254	574
909.652	573.6
910.05	570.8
910.448	567
910.846	574.8
911.244	567.2
911.643	575.2
912.041	574.4
912.44	595.6
912.839	567.4
913.237	566
913.636	563.8
914.035	580.8
914.434	567.8
914.834	578.8
915.233	586.2
915.633	572.2
916.032	574.4
916.432	574
916.832	584.2
917.232	572.6
917.632	563.8
918.032	570.2
918.432	568.6
918.833	577
919.233	573.2
919.634	560.6
920.035	571.2
920.436	569.6
920.837	580.6
921.238	562.4
921.639	568.6
922.019	574.4
922.42	584.6
922.822	573
923.224	564.8
923.625	563.4
924.027	569.2
924.429	586.6
924.81	582.8
925.212	575.6
925.615	571.4
926.017	572.6
926.42	580
926.801	575.4
927.204	576.6
927.607	572
928.01	582.2
928.413	577.8
928.795	564.4
929.199	574.4
929.602	565.2
930.006	567
930.388	560.4
930.792	575.2
931.196	573.6
931.579	593.4
931.983	564.4
932.388	609
932.771	573.4
933.176	565.2
933.58	584.2
933.964	575
934.369	564
934.774	574
935.158	574.2
935.563	572.8
935.947	572.2
936.353	576.8
936.759	570.4
937.143	573.2
937.549	568.8
937.934	583.2
938.34	584
938.746	564.2
939.131	577.4
939.538	576.2
939.923	577.4
940.33	570.8
940.716	580
941.123	575.8
941.508	576.4
941.916	588.2
942.302	576.2
942.709	561.2
943.096	555.4
943.503	575.2
943.89	569.2
944.298	573.4
944.685	598.8
945.072	575.2
945.48	589.8
945.867	561.8
946.276	564.4
946.663	594.2
947.051	592.2
947.46	580.8
947.848	569.8
948.257	561.2
948.645	568.2
949.033	557.8
949.443	557.8
949.831	605.6
950.22	558.2
950.63	575
951.018	601.6
951.407	566.8
951.796	570.4
952.207	577.2
952.596	573.8
952.985	566.2
953.375	607.2
953.786	575.4
954.176	557.8
954.566	574.8
954.956	567
955.367	566.8
955.758	580.2
956.148	559.4
956.539	579
956.929	562.6
957.341	560.4
957.732	575
958.123	568.2
958.515	569.4
958.906	572
959.297	565.2
959.689	569.6
960.102	564.4
960.494	575.6
960.886	578.2
961.278	568.2
961.67	587.8
962.062	605.4
962.455	567.6
962.847	564.2
963.24	567.2
963.633	577.8
964.026	556.2
964.419	582.2
964.812	583
965.206	567.2
965.599	581.6
965.993	571.2
966.386	568
966.78	576.6
967.174	577.4
967.569	564.6
967.963	563.8
968.357	559.2
968.752	566.8
969.146	562.8
969.541	571.4
969.936	572
970.331	571.2
970.705	571
971.1	562.4
971.496	582.4
971.892	562.8
972.287	564.8
972.683	572.8
973.079	563.2
973.454	583.4
973.85	575.8
974.247	579
974.643	599.2
975.04	580
975.415	570.8
975.812	562.6
976.209	581
976.607	566.2
976.982	585.6
977.38	585.2
977.778	570.8
978.175	568.4
978.552	569.8
978.95	564.4
979.348	580.6
979.725	624.2
980.123	567.6
980.522	568.6
980.899	569.6
981.298	574.2
981.697	571
982.075	574.8
982.474	562.4
982.852	574.2
983.251	578
983.651	569.8
984.029	582.4
984.429	567
984.808	560.6
985.208	568.8
985.609	559.6
985.987	560
986.388	557
986.768	575.6
987.168	564.2
987.548	574.4
987.949	586.2
988.329	580
988.731	559.4
989.111	566.8
989.491	558.4
989.893	574.2
990.273	577
990.676	566.4
991.057	565.2
991.459	566
991.84	564.2
992.221	561.6
992.624	588.2
993.006	574.8
993.388	574.2
993.791	580
994.173	571.4
994.576	594.8
994.959	568.6
995.341	563.2
995.724	569.8
996.128	575.4
996.511	573
996.894	571.2
997.298	570.2
997.681	575
998.065	562
998.448	569.6
998.854	585.4
999.237	559.6
999.621	573.2
1000.01	583.8
1000.39	570.2
1000.8	560.4
1001.18	584.6
1001.56	575.6
1001.95	576.6
1002.33	579.4
1002.72	569.2
1003.13	568.4
1003.51	562.6
1003.9	561.2
1004.28	583.4
1004.67	571
1005.06	569
1005.44	601.2
1005.83	564.8
1006.21	569.4
1006.6	567.4
1006.99	591
1007.37	581
1007.76	571
1060.12	563.8
1060.51	566.8
1060.89	574.8
1061.28	573.4
1061.67	575.2
1062.06	561.6
1062.45	567.8
1062.83	560.6
1063.22	574.2
1063.61	605.2
1064	570.6
1064.39	567.6
1064.78	566.4
1065.14	579.8
1065.53	560.8
1065.92	557.2
1066.31	557.4
1066.7	578.8
1067.09	581.2
1067.46	572.2
1067.85	574.2
1068.24	564.6
1068.63	567.4
1069.02	565
1069.39	566.6
1069.78	562.4
1070.17	562.2
1070.57	562.8
1070.93	565.4
1071.33	554.8
1071.72	570.4
1072.11	561.8
1072.48	557.4
1072.87	562.4
1073.26	572
1073.64	570
1074.03	563.8
1074.4	559.2
1074.79	561.8
1075.19	567.6
1075.56	569.8
1075.95	571.4
1076.34	564.6
1076.72	565.8
1077.11	569
1077.48	576
1077.88	568
1078.25	562
1078.64	580.4
1079.02	569.6
1079.41	578
1079.78	577.2
1080.18	569.6
1080.55	627.4
1080.95	556.8
1081.32	569.6
1081.72	576.6
1082.09	571.4
1082.49	564.2
1082.86	576.2
1083.24	555.8
1083.63	556.8
1084.01	571.4
1084.38	573
1084.78	569.8
1085.16	582.8
1085.55	588.2
1085.93	587.2
1086.31	558.6
1086.7	596.4
1087.08	572
1087.46	563.8
1087.83	563.4
1088.23	575.4
1088.61	570.8
1088.99	571.2
1089.36	561.8
1089.76	567.6
1090.14	564.6
1090.52	563.4
1090.9	564.8
1091.27	577
1091.67	585
1092.05	565.2
1092.43	564.6
1092.81	568.4
1093.19	569.6
1093.57	556.8
1093.95	558.4
1094.35	573.8
1094.73	575.6
1095.11	562.2
1095.49	563.4
1095.87	569.4
1096.25	574.2
1096.63	575
1097.01	560.2
1097.39	568.6
1097.77	567.4
1098.15	568.2
1098.53	567
1098.91	564.4
1099.29	559.2
1099.68	574
1100.06	567.4
1100.44	561.8
1100.82	572.2
1101.18	576.8
1101.56	568
1101.95	563.6
1102.33	568.4
1102.71	570
1103.1	561.4
1103.48	556.8
1103.86	560.2
1104.22	562.8
1104.61	565.8
1104.99	561.8
1105.38	560.6
1105.76	572.8
1106.12	566.6
1106.51	602.2
1106.89	576.6
1107.26	570.8
1107.64	578.4
1108.03	569
1108.41	571.8
1108.78	567.6
1109.16	573
1109.55	573.8
1109.91	563
1110.3	554.8
1110.69	576.8
1111.05	568
1111.44	561.4
1111.8	565.2
1112.19	568.8
1112.58	565.2
1112.94	565.4
1113.33	558.6
1113.7	561.8
1114.09	562.4
1114.45	561.2
1114.84	568.2
1115.21	571.2
1115.6	563.8
1115.96	572
1116.35	568.8
1116.72	559.2
1117.11	582.4
1117.48	558.2
1117.85	567.8
1118.24	579.8
1118.6	568.2
1118.99	567.6
1119.36	569
1119.73	566.4
1120.12	579.6
1120.49	561
1120.86	579.2
1121.25	563
1121.62	559
1121.99	563.2
1122.38	574.6
1122.76	565.8
1123.13	568
1123.5	573.4
1123.89	575
1124.26	556.8
1124.63	569.6
1125	568.6
1125.4	556.8
1125.77	573
1126.14	557.4
1126.51	566.8
1126.88	568
1127.26	566.4
1127.63	560
1128.02	565
1128.4	564.6
1128.77	567.8
1129.14	561.6
1129.52	559
1129.89	579.6
1130.26	561.2
1130.64	556.4
1131.01	565
