#lambda/nm	C1
208.295	545
208.67	480.4
209.045	453.2
209.419	450.8
209.794	602.2
210.169	592.8
210.544	689.2
210.919	598.8
211.295	596
211.67	603.4
212.045	599.2
212.421	592.4
212.796	632
213.172	594.2
213.547	603.2
213.923	593.6
214.299	591.4
214.675	614.2
215.051	602.6
215.427	611.2
215.803	618.6
216.179	605.8
216.555	593.8
216.932	601.6
217.308	601.2
217.684	606.8
218.061	602.8
218.438	604.4
218.814	594.2
219.191	608
219.568	592.8
219.945	600
220.322	605.6
220.699	605.4
221.076	611
221.453	598.8
221.83	596.8
222.208	600.4
222.585	595.8
222.962	604.6
223.34	599.8
223.717	596.6
224.095	596.8
224.473	597
224.851	598.4
225.229	582
225.607	617.8
225.985	599
226.363	599.6
226.741	607.8
227.119	603.8
227.497	605
227.876	592
228.254	602.4
228.633	603.6
229.011	604.2
229.39	606.6
229.769	605.8
230.148	605
230.527	617.6
230.905	604.8
231.284	604.4
231.664	600.4
232.043	600.4
232.422	610
232.801	590.4
233.181	600.6
233.56	590
233.94	593
234.319	596.4
234.699	594.2
235.079	628.8
235.458	630
235.838	611.2
236.218	596.6
236.598	585.8
236.978	597
237.358	592.6
237.738	597.6
238.119	598.2
238.499	589.4
238.88	600.4
239.26	615
239.641	591.2
240.021	595
240.402	604.4
240.783	599
241.163	591.8
241.544	601.2
241.925	593.2
242.306	617
242.687	597.6
243.069	595
243.45	603.4
243.831	588.4
244.212	599
244.594	636.2
244.975	601.6
245.357	593.6
245.739	593.2
246.12	595.4
246.502	616.2
246.884	590.6
247.266	597.4
247.648	599
248.03	619.4
248.412	607
248.794	608.6
249.176	596.2
249.559	607.2
249.941	589
250.323	589.2
250.706	600.6
251.089	597.2
251.471	594.8
251.854	603.2
252.237	601
252.62	606
253.002	601.6
253.385	599.4
253.769	610.6
254.152	600.4
254.535	598.4
254.918	591.2
255.301	604
255.685	601.8
256.068	593.8
256.452	612.4
256.835	596.8
257.219	604.8
257.603	609.2
257.986	585.8
258.37	602.2
258.754	593.8
259.138	596.6
259.522	599
259.906	594
260.29	604.6
260.675	610
261.059	600.6
261.443	588.2
261.828	591.6
262.212	597.4
262.597	583.4
262.981	590.4
263.366	598.8
263.751	596.2
264.136	587.8
264.521	587.2
264.906	592
265.291	605.4
265.676	594.2
266.061	604
266.446	614
266.831	598
267.217	613.2
267.602	603.4
267.987	602
268.373	593.6
268.759	606.4
269.144	604.2
269.53	607.6
269.916	594.2
270.302	600.8
270.688	601
271.074	599.6
271.46	610.8
271.846	627.2
272.232	609.8
272.618	599.6
273.004	593
273.391	611.6
273.777	606.4
274.164	599
274.55	607.8
274.937	599.4
275.324	595.8
275.71	610.2
276.097	606.6
276.484	593
276.871	603.8
277.258	605.4
277.645	592.2
278.032	595.2
278.419	602.6
278.807	605.2
279.194	596.8
279.581	593
279.969	608.6
280.356	604.8
280.744	603.4
281.131	624.6
281.519	605
281.907	602
282.295	601.6
282.682	609
283.07	607
283.458	605.8
283.846	609.8
284.235	608
284.623	610
285.011	590.6
285.399	606.2
285.788	592.6
286.176	592.8
286.565	612.6
286.953	601.2
287.342	598
287.731	599.8
288.119	600.4
288.508	600.4
288.897	599
289.286	587
289.675	600.6
290.064	608.8
290.453	600.2
290.821	600.6
291.21	620.2
291.599	592.4
291.989	596
292.378	609.8
292.768	612.8
293.157	607
293.547	606
293.936	598
294.326	598
294.716	601.2
295.106	596.4
295.496	605.6
295.886	606.4
296.276	606.6
296.666	595
297.056	597.8
297.446	584.2
297.836	612.8
298.227	599.8
298.617	608.4
299.008	613.6
299.398	594
299.789	588.2
300.179	606.2
300.57	606
300.961	595.6
301.352	603.6
301.742	602.8
302.133	603.8
302.524	596.4
302.915	597.2
303.307	594.8
303.698	603.4
304.089	600.8
304.48	592.8
304.872	605.8
305.263	597
305.655	592.6
306.046	599.6
306.438	597
306.829	594.2
307.221	601
307.613	605.4
308.005	605.6
308.397	607.6
308.789	621.6
309.181	614.2
309.573	621.4
309.965	613
310.357	595
310.749	614
311.142	598.2
311.534	599.6
311.926	614.2
312.319	601.2
312.711	596.8
313.104	612.4
313.497	600.8
313.889	629.8
314.282	622
314.675	623.2
315.068	602
315.461	609.4
315.854	631.2
316.247	615
316.64	602.2
317.033	601.6
317.405	607.2
317.798	603.6
318.192	602
318.585	598.6
318.979	608.6
319.372	594.8
319.766	592.4
320.16	604.2
320.553	610.8
320.947	618.4
321.341	599.4
321.735	598.8
322.129	587.8
322.523	622.8
322.917	595.2
323.311	605.2
323.705	595.8
324.099	602.4
324.494	613.4
324.888	612.6
325.282	600.8
325.677	611.2
326.071	602.2
326.466	615.2
326.861	607.2
327.255	616.4
327.65	617.2
328.045	621
328.44	608.2
328.835	607.6
329.23	592.4
329.625	628.2
330.02	600.8
330.415	618
330.81	600.6
331.206	599.4
331.601	597.4
331.996	604.8
332.37	612.4
332.766	598.4
333.161	619
333.557	591.6
333.953	602.6
334.348	916.6
334.744	597.4
335.14	594.2
335.536	601.4
335.932	600.6
336.328	600.8
336.724	600.6
337.12	601
337.516	598.6
337.913	601
338.309	606.6
338.705	602.2
339.102	608.4
339.498	598
339.895	604.8
340.291	599.6
340.688	600.6
341.085	583.4
341.481	598.4
341.878	595.8
342.275	615
342.672	595.8
343.069	590.8
343.466	586.6
343.842	607.4
344.239	596.8
344.636	599
345.033	595
345.431	586.2
345.828	595.2
346.225	591
346.623	630.8
347.02	605.2
347.418	606.2
347.816	617.6
348.213	589
348.611	601.4
349.009	590.4
349.407	603.6
349.805	591
350.203	584.4
350.601	606.8
350.999	593.4
351.397	626.4
351.795	610
352.193	608.6
352.57	608.4
352.969	608.8
353.367	581.8
353.766	599
354.164	594.8
354.563	606.2
354.961	598.6
355.36	593.8
355.759	595.4
356.158	588
356.557	585.6
356.956	586.4
357.355	586
357.754	587.4
358.153	602.2
358.552	609
358.951	598.2
359.35	602.4
359.75	592.8
360.149	593.2
360.527	581
360.926	583.4
361.326	596.2
361.726	590.4
362.125	588.8
362.525	605.4
362.925	590.6
363.325	591.8
363.724	589.2
364.124	589
364.524	588.8
364.924	596.4
365.324	603.2
365.725	584.8
366.125	601
366.525	594.4
366.904	591.6
367.304	582.2
367.705	609.2
368.105	606.4
368.506	592
368.906	601.2
369.307	593.8
369.708	602.4
370.108	584.6
370.509	596.2
370.91	590.8
371.311	594.4
371.712	598.6
372.113	592.4
372.514	590
372.894	598.2
373.295	587.6
373.696	605.4
374.097	608
374.499	620.2
374.9	592.6
375.301	589.4
375.703	596.2
376.105	592.6
376.506	602.8
376.908	596.6
377.309	595.6
377.711	607
378.113	584.4
378.493	598.4
378.895	590.2
379.297	618
379.699	588.6
380.102	596.6
380.504	600.4
380.906	591.4
381.308	620.6
381.71	587
382.113	603
382.515	593.8
382.918	600
383.299	596.8
383.701	596.4
384.104	596.2
384.507	577.4
384.909	598.8
385.312	585.4
385.715	581.6
386.118	600
386.521	576.8
386.924	597
387.327	589.6
387.709	582.6
388.112	582.6
388.515	595.2
388.918	598.4
389.322	597.4
389.725	588
390.129	611.6
390.532	599
390.936	593.8
391.339	588.4
391.743	600.6
392.125	590
392.529	603.4
392.933	601.6
393.337	593
393.74	583.6
394.144	595.6
394.548	582
394.953	592.4
395.357	605.2
395.761	584
396.144	587.6
396.548	591.2
396.952	589.6
397.357	591
397.761	589.6
398.166	593.2
398.57	591.4
398.975	587.4
399.379	593
399.763	624.8
400.168	588
400.572	588
400.977	592.2
401.382	606.4
401.787	596
402.192	607.8
402.597	604.8
403.002	585.6
403.386	603.6
403.791	609
404.197	580.8
404.602	592.2
405.007	593.4
405.413	589.6
405.818	598.2
406.224	582.4
406.608	589.2
407.014	580
407.42	612.4
407.825	582.8
408.231	595.8
408.637	588.8
409.043	602.2
409.449	583.6
409.834	590.4
410.24	590.8
410.646	599.4
411.052	599.4
411.458	598.4
411.865	603.8
412.271	596.2
412.677	595.2
413.062	605.4
413.469	593
413.875	617.8
414.282	599.8
414.689	597.6
415.095	600
415.502	584.2
415.888	592
416.294	583.2
416.701	636.6
417.108	591.4
417.515	596.2
417.923	589
418.33	612.4
418.715	599.6
419.123	591.8
419.53	585.8
419.937	596
420.345	605.8
420.752	595.6
421.16	611.4
421.546	593.6
421.953	603
422.361	598.6
422.769	590.6
423.177	594.4
423.585	613.8
423.992	620.2
424.379	603.8
424.787	598.8
425.195	609.2
425.603	591
426.011	607.8
426.419	606.8
426.806	592
427.214	600
427.623	612.2
428.031	612.6
428.44	602.6
428.848	606.4
429.235	614.8
429.644	595.6
430.053	601.6
430.461	628.2
430.87	634
431.279	613.6
431.666	619.2
432.075	628.4
432.484	636.2
432.893	629.4
433.302	655.6
433.711	669.2
434.099	662
434.508	660
434.918	660.2
435.327	681.2
435.737	684.6
436.125	693.2
436.534	705
436.944	701.2
437.353	715.2
437.763	740
438.173	728.8
438.561	741.6
438.971	729
439.381	752.2
439.791	768.8
440.201	759.2
440.589	772.8
440.999	788.2
441.409	797
441.819	777.8
442.23	808.8
442.619	812.6
443.029	816.8
443.439	817.2
443.85	831.4
444.26	836.8
444.649	837.4
445.06	833.2
445.471	828.6
445.881	845.4
446.292	866
446.682	870
447.092	841.8
447.503	903.4
447.914	873.6
448.325	850.8
448.715	861
449.126	873
449.537	857.2
449.948	866
450.338	873.4
450.75	888.6
451.161	881
451.572	881
451.984	865
452.374	862.6
452.786	881
453.197	886.2
453.609	892.6
453.999	876.6
454.411	875.4
454.823	880.6
455.235	892.8
455.647	882.8
456.037	892
456.449	869.2
456.862	887.4
457.274	892.6
457.665	887
458.077	886.4
458.489	919.4
458.902	893.2
459.293	887.6
459.705	899.4
460.118	884.8
460.53	893.8
460.921	893.8
461.334	906.8
461.747	889.2
462.16	912.6
462.551	907.4
462.964	894.4
463.377	878.8
463.79	892.8
464.182	902.4
464.595	885
465.008	900.4
465.421	903.4
465.813	890.6
466.226	903.2
466.64	888
467.053	930.6
467.445	913.4
467.859	931
468.272	903.6
468.686	909.2
469.078	904.8
469.492	898.4
469.906	903.4
470.298	905
470.712	896.2
471.126	941.6
471.54	878.2
471.933	882.4
472.347	894
472.761	887.4
473.175	889.2
473.568	886.8
473.982	882
474.397	890.6
474.79	902.2
475.204	894
475.619	880
476.033	884.4
476.426	875
476.841	879.2
477.256	900
477.649	871.8
478.064	868.6
478.479	873
478.872	865.2
479.287	861.6
479.702	861.8
480.118	868
480.511	878.6
480.927	868.8
481.342	872.2
481.736	862.8
482.151	865
482.566	873.4
482.96	860.8
483.376	866.4
483.792	861.6
484.186	858.8
484.602	846.2
485.017	860
485.412	843.2
485.827	850.2
486.243	850.8
486.638	876.8
487.054	851
487.47	847
487.865	835.4
488.281	839.4
488.697	832
489.092	840
489.508	841.4
489.925	843.6
490.32	818.8
490.736	841.8
491.153	836.6
491.548	833.4
491.964	825.8
492.381	821.6
492.776	824.2
493.193	827
493.61	823.6
494.006	810.2
494.422	819.8
494.84	796.6
495.235	815.2
495.652	808
496.069	799
496.465	790.2
496.883	801.2
497.3	819.6
497.696	798.6
498.113	805.4
498.509	776.8
498.927	772
499.344	778
499.741	783.2
500.158	797.4
500.576	798.4
500.973	784.4
501.39	781.8
501.787	768.2
502.205	786.6
502.623	767.6
503.02	766.4
503.438	759.8
503.856	769.6
504.253	760.2
504.671	768.4
505.068	752.6
505.486	766.4
505.905	786.8
506.302	766.8
506.72	772.2
507.118	749
507.536	759.8
507.955	753.8
508.352	756.6
508.771	753.8
509.169	759.8
509.587	736.8
510.006	754.4
510.404	735.6
510.823	743.6
511.221	744
511.64	746
512.038	748.6
512.457	737.4
512.877	735.8
513.275	733.6
513.694	727.2
514.092	738.6
514.512	726
514.91	729.6
515.33	723
515.749	723.4
516.148	730.4
516.568	723.2
516.966	716.6
517.386	714.8
517.785	717.8
518.205	720.6
518.603	705.2
519.024	708.6
519.444	712.2
519.843	724.8
520.263	722.6
520.662	711
521.082	703.8
521.481	706.8
521.902	701.4
522.301	709.2
522.722	694.4
523.121	704
523.542	683
523.963	690.4
524.362	686.4
524.783	696
525.183	684
525.604	688.2
526.003	680
526.425	677.4
526.824	697.2
527.246	689
527.646	697.2
528.067	690.2
528.467	688
528.888	698.2
529.289	680.8
529.71	682
530.11	674.4
530.532	681
530.932	672
531.354	676.6
531.755	700
532.176	683.4
532.577	677.2
532.999	673.2
533.4	662
533.822	673.6
534.223	673.4
534.645	666.6
535.046	669.8
535.468	664
535.869	678.4
536.292	651.8
536.693	693.4
537.115	661.2
537.516	655.4
537.939	652
538.34	685.2
538.742	677.6
539.165	661.2
539.566	657.4
539.989	657.8
540.391	647.6
540.814	663.4
541.216	652.4
541.639	662
542.041	664.4
542.464	644
542.866	653
543.268	641.2
543.691	656.2
544.093	657.6
544.517	671
544.919	635.6
545.343	670.8
545.745	643.2
546.147	653.2
546.571	648.8
546.974	639.4
547.398	645.2
547.8	651.4
548.224	635.2
548.627	643.4
549.03	640.4
549.454	636.6
549.857	629.2
550.281	630.8
550.684	633.2
551.087	653
551.512	644.4
551.915	633.8
552.34	632.8
552.743	632.4
553.146	632.8
553.571	635.6
553.975	647.4
554.399	630.4
554.803	674
555.207	629.6
555.632	625.4
556.036	628.4
556.461	626.4
556.865	631.4
557.268	620.4
557.694	622.6
558.098	634.6
558.502	624
558.927	624
559.332	627.8
559.736	624
560.162	625.6
560.566	620.2
560.992	629.6
561.396	625.2
561.801	620.8
562.227	620
562.631	616.8
563.036	626.2
563.462	625.6
563.867	622.2
564.272	620.6
564.698	635
565.103	615.2
565.508	637
565.935	613.6
566.34	614
566.745	637.6
567.172	608.4
567.577	634.4
567.982	634.2
568.409	622.2
568.815	614.2
569.22	618.4
569.626	621
570.053	612.4
570.459	621.2
570.865	614.8
571.292	617.6
571.698	614.4
572.104	604.4
572.531	613
572.937	622.4
573.343	608.2
573.75	608.6
574.177	620.2
574.583	618.8
574.99	610.2
575.396	611.2
575.824	611.6
576.231	617.4
576.637	602
577.065	636.2
577.472	604.4
577.879	612.4
578.286	624.8
578.714	604.6
579.121	598.8
579.528	612.6
579.935	607.8
580.364	601.6
580.771	594
581.178	603
581.585	606.6
582.014	606.4
582.421	597.8
582.829	603.6
583.236	614.6
583.644	601.2
584.073	600.4
584.481	604.4
584.889	602.4
585.296	599.4
585.726	596.6
586.134	598
586.542	600
586.95	617.6
587.358	596.4
587.787	605.4
588.196	615.8
588.604	596.8
589.012	597.6
589.421	599.4
589.851	596.4
590.259	606.6
590.668	598.8
591.076	632.4
591.485	596
591.894	603.2
592.324	603.6
592.733	602.2
593.142	579
593.551	593.2
593.96	618.6
594.369	574.6
594.8	579.2
595.209	585.6
595.618	582.6
596.028	584
596.437	582
596.847	589.2
597.256	588.8
597.687	592.6
598.097	587.6
598.507	575
598.917	593.8
599.327	592.6
599.736	588.6
600.146	599.4
600.556	592.2
600.988	608.4
601.398	581.2
601.808	600.8
602.219	576.2
602.629	591
603.039	589.2
603.45	612
603.86	585.4
604.271	603.2
604.703	588.8
605.114	593
605.525	596
605.935	594.4
606.346	606
606.757	593
607.168	588.4
607.579	580.6
607.99	599.2
608.402	587.8
608.813	593.8
609.224	591.6
609.636	576
610.047	590.6
610.48	590.8
610.892	590.4
611.303	593.2
611.715	591.6
612.127	580.6
612.539	585.6
612.95	584.4
613.362	575.8
613.774	580.6
614.186	580
614.599	578.2
615.011	594
615.423	582.2
615.835	588.8
616.248	578.6
616.66	599
617.073	582.6
617.485	587.8
617.898	592
618.311	593
618.723	592
619.136	617.6
619.549	597.6
619.962	600.4
620.375	580.2
620.788	582.8
621.201	584.2
621.614	586.8
622.028	577.2
622.441	589.4
622.854	596.2
623.268	580.8
623.681	601.8
624.095	597.6
624.509	596.6
624.922	594.8
625.336	573.4
625.728	590.4
626.142	596.6
626.556	598.8
626.97	593.2
627.384	580.4
627.799	597
628.213	596.6
628.627	588.4
629.041	583.6
629.456	586.2
629.87	596
630.285	595.8
630.699	593.6
631.093	584.2
631.507	594.6
631.922	583.8
632.337	593.6
632.752	572.2
633.167	580.2
633.582	590.6
633.997	581.8
634.412	575
634.806	588.8
635.221	580.2
635.637	591
636.052	579
636.468	579.4
636.883	598.6
637.299	586.4
637.715	573.8
638.109	584
638.525	580.6
638.941	602.6
639.357	591.8
639.773	595.8
640.189	588.2
640.584	587.8
641	588
641.416	568.4
641.832	580
642.249	584.6
642.665	583
643.06	582.2
643.477	586.2
643.894	572.2
644.31	579
644.727	580.6
645.123	580.8
645.54	581
645.957	578
646.374	598.6
646.77	579.8
647.187	605
647.604	574.6
648.021	568.4
648.439	575.2
648.835	577.6
649.252	578.8
649.67	579.6
650.088	575.4
650.484	582.8
650.902	588.4
651.32	587
651.738	577
652.134	579.4
652.552	596
652.971	588
653.389	580.6
653.786	595
654.204	601.8
654.622	572
655.019	585.8
655.438	582.4
655.857	585.2
656.275	585.2
656.673	582.4
657.091	583.2
657.51	575.2
657.908	583.6
658.327	597.2
658.746	567.8
659.144	576.4
659.563	591.4
659.982	583.6
660.38	581
660.8	576.6
661.219	590.2
661.617	592.6
662.037	588.4
662.457	587.4
662.855	571.6
663.275	606.4
663.695	573.4
664.094	573
664.514	580
664.934	569.2
665.333	587.6
665.753	581.8
666.152	568.6
666.572	579.2
666.993	587.6
667.392	576.6
667.812	568.6
668.212	571.4
668.632	589.2
669.053	562.8
669.453	579.2
669.874	577.8
670.273	584
670.694	573
671.116	584.4
671.515	584
671.937	575
672.337	569.4
672.758	576.8
673.158	581.2
673.58	574.2
673.98	577.6
674.402	599.8
674.824	581.6
675.224	575.8
675.646	570.8
676.047	571.6
676.469	579.2
676.869	576
677.292	576.4
677.693	564
678.115	571
678.516	581.6
678.939	584.2
679.34	580
679.762	587
680.164	585.6
680.586	571
680.988	572.2
681.411	596.4
681.812	580.8
682.236	570.8
682.637	563.4
683.061	565.8
683.462	574.4
683.864	573.4
684.288	582
684.69	568.8
685.114	588.2
685.516	581.6
685.94	577.8
686.342	587.6
686.766	577.4
687.168	577.2
687.571	587.6
687.995	583.6
688.398	560.6
688.822	573
689.225	590
689.628	582.8
690.052	564.6
690.456	580.6
690.88	574.4
691.284	560
691.687	580.4
692.112	566
692.515	558.8
692.919	572.4
693.344	572.6
693.747	572.6
694.173	568.2
694.577	580
694.98	568
695.406	578.4
695.81	573
696.214	581.2
696.64	571.4
697.044	571.6
697.448	584.8
697.874	573.6
698.279	579.2
698.684	566.4
699.11	562.4
699.514	564.8
699.919	566.2
700.324	565.2
700.75	573.6
701.156	573
701.561	587.6
701.987	579.6
702.393	584.8
702.798	581.2
703.203	574
703.63	567.6
704.036	566.6
704.442	572.2
704.847	571
705.274	576.8
705.68	574
706.086	576.6
706.492	577
706.92	566.2
707.326	578.8
707.732	566.4
708.139	572.2
708.545	571
708.973	571
709.38	574
709.786	570.2
710.193	591
710.6	578.2
711.028	569.4
711.435	575
711.842	573.2
712.249	572
712.656	569.8
713.064	583.4
713.492	574.8
713.9	568
714.307	581.4
714.715	571.6
715.123	579
715.53	572
715.938	576.2
716.367	572.6
716.775	572.8
717.184	563
717.592	568.6
718	578.2
718.408	599.2
718.816	614.8
719.225	569
719.633	577.8
720.042	569
720.472	571
720.881	593.2
721.29	576.2
721.699	563.8
722.108	570.2
722.517	577
722.926	569.6
723.335	580
723.744	570.2
724.154	575
724.563	571.8
724.973	569.6
725.382	570.2
725.792	574
726.202	565.2
726.612	590.8
727.022	573.8
727.432	564.6
779.813	564.8
780.223	609.6
780.634	572.6
781.044	570
781.454	576.6
781.865	584.2
782.276	566.4
782.686	577.4
783.097	571.6
783.508	576.4
783.919	576
784.33	581.8
784.741	581.4
785.152	571.8
785.563	562.2
785.974	565.2
786.386	582.8
786.776	568.4
787.188	572.8
787.599	569.6
788.011	586.8
788.423	570.8
788.835	555.6
789.247	571
789.659	567.4
790.071	566.6
790.483	605.8
790.874	566
791.286	580.2
791.699	567.4
792.111	575
792.524	573.2
792.937	575.8
793.349	562.6
793.741	568.2
794.154	570.6
794.567	586
794.98	578.2
795.393	560
795.785	579.8
796.198	565.4
796.612	568.4
797.026	568.2
797.439	556.4
797.831	566.4
798.245	558
798.659	564.4
799.073	568
799.487	569.4
799.88	572.4
800.294	568.6
800.708	568.2
801.123	571.4
801.516	586
801.93	559
802.345	550.6
802.76	567.2
803.153	580.4
803.568	588
803.983	573.4
804.377	572
804.792	561.8
805.207	556.4
805.601	572.4
806.016	596.6
806.432	566.2
806.826	599.8
807.242	581.2
807.658	579.4
808.052	573.8
808.468	563.2
808.884	569.2
809.279	570.6
809.695	587.6
810.111	588
810.506	571.2
810.922	586.4
811.339	567.4
811.734	575
812.151	566.6
812.546	569.4
812.963	563.6
813.38	582.6
813.776	570.4
814.193	586.2
814.589	563
815.006	564.2
815.402	563.2
815.82	566.6
816.237	566.6
816.633	579
817.051	559.2
817.448	576.2
817.866	564.2
818.262	586.2
818.68	573
819.077	564.8
819.495	579.2
819.892	612
820.311	564.6
820.708	570.6
821.127	574
821.524	581
821.943	566.4
822.34	587.8
822.759	573.4
823.157	572.8
823.576	578.4
823.974	573.8
824.393	614
824.791	568.4
825.189	562.2
825.609	565.6
826.007	570.6
826.427	555.8
826.826	570.2
827.246	572.2
827.644	560.4
828.043	573.2
828.463	564.6
828.862	576.8
829.261	577.8
829.682	560.4
830.081	570.6
830.502	561.8
830.901	570.8
831.301	584.6
831.722	561
832.121	575
832.521	562.8
832.943	571.8
833.342	570
833.742	567.8
834.164	567.8
834.564	569.2
834.965	573
835.386	566.2
835.787	564.4
836.188	565
836.588	564.2
837.01	566
837.411	554.8
837.812	570
838.213	577.2
838.636	562.2
839.037	632.2
839.438	563.4
839.84	565
840.263	569.2
840.664	578.8
841.066	569.8
841.468	575.6
841.891	564
842.293	584
842.695	569.8
843.098	576.4
843.5	562
843.902	573.8
844.326	564.4
844.729	574.4
845.131	583.4
845.534	568.6
845.937	581.8
846.34	585.6
846.764	562.8
847.167	565.2
847.571	564.8
847.974	568.6
848.377	569
848.781	604.6
849.184	582.2
849.588	567.2
849.992	570
850.396	569.2
850.821	584
851.225	574
851.63	564.6
852.034	586.2
852.438	561.8
852.843	638.2
853.247	564.2
853.652	564
854.057	582.6
854.462	577
854.867	564.6
855.272	596.8
855.677	571.2
856.082	566.8
856.487	559
856.893	575
857.298	573.8
857.704	569.4
858.11	571.6
858.516	573.2
858.922	570.4
859.328	584
859.734	570.8
860.14	576.6
860.525	576.2
860.931	560.2
861.338	563.2
861.745	570.6
862.151	579.2
862.558	575.4
862.965	565
863.372	563
863.779	560.6
864.186	592.4
864.572	566.6
864.98	584.8
865.387	591
865.795	561.2
866.203	572.4
866.61	558.4
867.018	581.6
867.405	569.6
867.813	559.6
868.221	569.4
868.63	565.4
869.038	580.2
869.425	598.8
869.834	568.4
870.243	567.8
870.652	561.2
871.039	571.8
871.448	563.8
871.857	580.4
872.266	575.4
872.654	561.4
873.064	564.4
873.473	567.8
873.883	563.8
874.271	563.4
874.681	572.8
875.091	560.4
875.48	572
875.89	580.4
876.3	561.6
876.689	561.4
877.1	567.6
877.51	566.8
877.9	583.6
878.31	563.8
878.721	602.6
879.111	568
879.522	560.2
879.933	559.6
880.323	560
880.734	557.6
881.125	570
881.536	567.4
881.948	560.2
882.338	560.4
882.75	575.2
883.141	566.6
883.553	573.2
883.944	589.2
884.356	570.6
884.769	563.4
885.16	571
885.573	562.6
885.964	563.2
886.377	569
886.768	563
887.181	559
887.573	553.6
887.987	571.6
888.378	572.2
888.792	571.8
889.184	608.6
889.598	557.2
889.99	565.8
890.383	569.8
890.797	552.4
891.19	576
891.604	564
891.997	553.8
892.411	557.8
892.805	563.2
893.198	554.4
893.613	558.2
894.006	559.6
894.421	561.2
894.815	559.8
895.209	560.8
895.624	596
896.018	570.4
896.412	557.2
896.828	563
897.222	573
897.617	567.6
898.033	578.6
898.427	570.2
898.822	570.6
899.239	551.2
899.634	554.4
900.029	581.8
900.424	559.8
900.841	560.6
901.236	579.2
901.632	569
902.027	613.6
902.445	575.4
902.841	565.4
903.237	565.8
903.633	581.2
904.05	571
904.447	570.6
904.843	572.6
905.24	568.6
905.636	553.8
906.033	562.8
906.451	573
906.848	562.2
907.246	564.8
907.643	570.6
908.04	569.6
908.438	576.2
908.835	578.2
909.254	567.2
909.652	570.8
910.05	565
910.448	563.4
910.846	567.2
911.244	559.4
911.643	561
912.041	572
912.44	579
912.839	561.4
913.237	568.4
913.636	560.2
914.035	566.8
914.434	561
914.834	575
915.233	578.2
915.633	565.2
916.032	565.6
916.432	548.6
916.832	572.6
917.232	563
917.632	565.2
918.032	565.8
918.432	570.4
918.833	561
919.233	569.8
919.634	562.6
920.035	572
920.436	558
920.837	562.8
921.238	562.2
921.639	577.4
922.019	574.4
922.42	565
922.822	569.6
923.224	567.4
923.625	558.8
924.027	566.4
924.429	581.6
924.81	564
925.212	569.6
925.615	574.4
926.017	566
926.42	575.4
926.801	570.2
927.204	565
927.607	570.4
928.01	576.2
928.413	566.8
928.795	547.4
929.199	564.6
929.602	561.2
930.006	567.6
930.388	564
930.792	568.2
931.196	558.8
931.579	589.2
931.983	560
932.388	602.8
932.771	556.6
933.176	560.6
933.58	567.6
933.964	568.4
934.369	550.2
934.774	562.2
935.158	565.2
935.563	562.6
935.947	565
936.353	567.8
936.759	560.2
937.143	570.2
937.549	561.8
937.934	579.6
938.34	585.8
938.746	556.4
939.131	564.4
939.538	560.8
939.923	566.8
940.33	562.4
940.716	569.4
941.123	569
941.508	573.4
941.916	580.6
942.302	573.4
942.709	558.2
943.096	559.2
943.503	573
943.89	569
944.298	562.8
944.685	590.4
945.072	566.8
945.48	574.8
945.867	568
946.276	556.4
946.663	577.8
947.051	581.2
947.46	575.2
947.848	562.6
948.257	563.4
948.645	571
949.033	558
949.443	566.8
949.831	600
950.22	557.6
950.63	569.8
951.018	593.6
951.407	566.8
951.796	558.6
952.207	568
952.596	566.8
952.985	559.2
953.375	609.4
953.786	567
954.176	560.2
954.566	569.8
954.956	562.2
955.367	564.4
955.758	583.8
956.148	558
956.539	571.8
956.929	554.6
957.341	550.6
957.732	557.8
958.123	569.2
958.515	557
958.906	567.2
959.297	562.8
959.689	562.4
960.102	554.6
960.494	563
960.886	563.6
961.278	563.2
961.67	586.4
962.062	603
962.455	565
962.847	557.6
963.24	561
963.633	562.6
964.026	551.6
964.419	568.2
964.812	574.4
965.206	564.2
965.599	571.4
965.993	563.2
966.386	553.6
966.78	568
967.174	575
967.569	559.2
967.963	552.2
968.357	553
968.752	557.4
969.146	553.6
969.541	558
969.936	554
970.331	561.2
970.705	563.8
971.1	556.6
971.496	566.4
971.892	554.4
972.287	562
972.683	565.8
973.079	564.8
973.454	568.8
973.85	569.6
974.247	570.2
974.643	584
975.04	569
975.415	561.6
975.812	562.2
976.209	567.8
976.607	556.8
976.982	576.2
977.38	574
977.778	565.8
978.175	555.2
978.552	571
978.95	568
979.348	563.4
979.725	607
980.123	562.6
980.522	557.6
980.899	554
981.298	557
981.697	560.4
982.075	550
982.474	557.4
982.852	564
983.251	562.8
983.651	556
984.029	566.6
984.429	558.8
984.808	546.8
985.208	560.6
985.609	550.2
985.987	549.6
986.388	558
986.768	567.6
987.168	552.8
987.548	567.4
987.949	561.2
988.329	568.2
988.731	549
989.111	564.8
989.491	557.8
989.893	562.2
990.273	572.2
990.676	558
991.057	556.8
991.459	554.8
991.84	556
992.221	549.4
992.624	582.8
993.006	564.6
993.388	570
993.791	565.8
994.173	570.8
994.576	589
994.959	560.6
995.341	564.4
995.724	558
996.128	565
996.511	562.8
996.894	564
997.298	558.8
997.681	568.2
998.065	561.6
998.448	566.8
998.854	570.8
999.237	553.8
999.621	568.6
1000.01	577
1000.39	565.8
1000.8	558.6
1001.18	575.8
1001.56	570.2
1001.95	577.8
1002.33	564.8
1002.72	566
1003.13	551.2
1003.51	559
1003.9	559.6
1004.28	579
1004.67	555.2
1005.06	571
1005.44	585.4
1005.83	557.6
1006.21	566.8
1006.6	562.4
1006.99	574
1007.37	566.6
1007.76	554.2
1060.12	559.2
1060.51	557.8
1060.89	568.4
1061.28	568.6
1061.67	572.8
1062.06	575.8
1062.45	566.4
1062.83	558.8
1063.22	569.2
1063.61	596
1064	562.4
1064.39	562
1064.78	558.6
1065.14	575
1065.53	566.2
1065.92	563.6
1066.31	559.6
1066.7	570
1067.09	572.2
1067.46	578.6
1067.85	567.4
1068.24	560
1068.63	576.8
1069.02	555.8
1069.39	564
1069.78	560.8
1070.17	557.4
1070.57	560.4
1070.93	567.6
1071.33	554.2
1071.72	565.8
1072.11	551.6
1072.48	563.6
1072.87	560.2
1073.26	564.4
1073.64	560.6
1074.03	558.4
1074.4	560
1074.79	558
1075.19	557.2
1075.56	567
1075.95	562.6
1076.34	554
1076.72	555
1077.11	569.8
1077.48	574.8
1077.88	559.2
1078.25	559.2
1078.64	570.6
1079.02	560.4
1079.41	563.8
1079.78	556
1080.18	560.8
1080.55	613.8
1080.95	560
1081.32	558
1081.72	566
1082.09	564.2
1082.49	557.8
1082.86	560.4
1083.24	553.4
1083.63	559.8
1084.01	560.4
1084.38	580.6
1084.78	550.6
1085.16	556
1085.55	578
1085.93	571
1086.31	558.6
1086.7	587.4
1087.08	563
1087.46	564
1087.83	558.6
1088.23	563
1088.61	554.4
1088.99	570.4
1089.36	560.2
1089.76	563.4
1090.14	561.6
1090.52	561.6
1090.9	562.2
1091.27	573.4
1091.67	579.2
1092.05	564.4
1092.43	558.6
1092.81	570.2
1093.19	573.8
1093.57	561.8
1093.95	559.2
1094.35	578.4
1094.73	568.2
1095.11	558.8
1095.49	551.2
1095.87	557.4
1096.25	580.2
1096.63	569.6
1097.01	558.4
1097.39	552.4
1097.77	564.2
1098.15	550
1098.53	550.4
1098.91	567.6
1099.29	563.8
1099.68	576.2
1100.06	575.2
1100.44	558.2
1100.82	560
1101.18	568
1101.56	557.8
1101.95	555.4
1102.33	561.4
1102.71	562.2
1103.1	560.8
1103.48	542
1103.86	551.4
1104.22	555.4
1104.61	567.8
1104.99	558.2
1105.38	555
1105.76	566.8
1106.12	561.6
1106.51	588.6
1106.89	569.8
1107.26	562.8
1107.64	567
1108.03	554.2
1108.41	560
1108.78	568.2
1109.16	560.8
1109.55	558.8
1109.91	548.2
1110.3	547.4
1110.69	560.6
1111.05	557.2
1111.44	559.6
1111.8	571
1112.19	559.4
1112.58	570.6
1112.94	558.6
1113.33	554.8
1113.7	550.6
1114.09	557.8
1114.45	559.6
1114.84	562.4
1115.21	562.8
1115.6	557
1115.96	560.6
1116.35	570.8
1116.72	554.8
1117.11	574.2
1117.48	556
1117.85	560.6
1118.24	572.2
1118.6	560.6
1118.99	557.4
1119.36	558.2
1119.73	560.2
1120.12	556.2
1120.49	556.8
1120.86	572.4
1121.25	566
1121.62	554.4
1121.99	554.4
1122.38	574
1122.76	558
1123.13	550.4
1123.5	565.4
1123.89	570.8
1124.26	552.6
1124.63	552.8
1125	553.2
1125.4	554.8
1125.77	553.2
1126.14	545.6
1126.51	555.6
1126.88	557
1127.26	551
1127.63	542.6
1128.02	552.2
1128.4	550.4
1128.77	559.6
1129.14	555.2
1129.52	560.4
1129.89	560.4
1130.26	552.6
1130.64	543.6
1131.01	558.6
