#lambda/nm	C1
208.295	557
208.67	502.2
209.045	457.8
209.419	459.8
209.794	594.8
210.169	582.2
210.544	681.6
210.919	590
211.295	578.8
211.67	586
212.045	586
212.421	579
212.796	617.4
213.172	580.8
213.547	579
213.923	587.6
214.299	580
214.675	592.8
215.051	593.4
215.427	590.2
215.803	600
216.179	588.4
216.555	574
216.932	601.2
217.308	585
217.684	588.6
218.061	585.2
218.438	591.8
218.814	578.2
219.191	590
219.568	585.2
219.945	580.4
220.322	591
220.699	587.2
221.076	582
221.453	580.4
221.83	580.6
222.208	581.6
222.585	580.4
222.962	577.6
223.34	580.6
223.717	584.6
224.095	575.8
224.473	580.4
224.851	583
225.229	572.4
225.607	597.2
225.985	580.2
226.363	591.8
226.741	582
227.119	583.6
227.497	594.6
227.876	577.4
228.254	583.8
228.633	591.6
229.011	593.4
229.39	582.6
229.769	581
230.148	579.4
230.527	596.8
230.905	579.2
231.284	587.8
231.664	581.4
232.043	593.8
232.422	586.6
232.801	583.4
233.181	591
233.56	581.8
233.94	583.4
234.319	574.8
234.699	588.2
235.079	613
235.458	617.4
235.838	602.4
236.218	584
236.598	580
236.978	584.6
237.358	574
237.738	575.2
238.119	584
238.499	576.8
238.88	584.8
239.26	598.2
239.641	579.2
240.021	581.8
240.402	580.2
240.783	576.6
241.163	580.8
241.544	586.2
241.925	582.8
242.306	593.4
242.687	584.6
243.069	586.2
243.45	589.6
243.831	580.8
244.212	580.8
244.594	610
244.975	589.2
245.357	585.2
245.739	576.6
246.12	581
246.502	587.2
246.884	592
247.266	583.8
247.648	588
248.03	605.2
248.412	591.2
248.794	584.8
249.176	580.4
249.559	595
249.941	581.8
250.323	579.4
250.706	582.6
251.089	580
251.471	588.4
251.854	589.4
252.237	580.6
252.62	591.6
253.002	587.8
253.385	585.8
253.769	593.4
254.152	590.8
254.535	594.6
254.918	583.2
255.301	580.8
255.685	577
256.068	579.8
256.452	601.8
256.835	596.2
257.219	581
257.603	599.4
257.986	574.2
258.37	580.4
258.754	566.4
259.138	600
259.522	593.4
259.906	576.2
260.29	583.2
260.675	582.4
261.059	591.8
261.443	576.4
261.828	588.6
262.212	593.4
262.597	579.4
262.981	585.4
263.366	599.2
263.751	586.8
264.136	582.2
264.521	583.2
264.906	576
265.291	589.6
265.676	582.8
266.061	594.6
266.446	605
266.831	582.8
267.217	595.8
267.602	579.4
267.987	583.6
268.373	578.6
268.759	591
269.144	583
269.53	584.2
269.916	573.2
270.302	582.2
270.688	584.8
271.074	590.8
271.46	593
271.846	605.4
272.232	586.6
272.618	581.6
273.004	582.4
273.391	586.2
273.777	593.6
274.164	581.8
274.55	594.4
274.937	581.2
275.324	583.6
275.71	586
276.097	588.2
276.484	582.2
276.871	592.8
277.258	591.6
277.645	573
278.032	588.2
278.419	582
278.807	586.4
279.194	580.8
279.581	573.4
279.969	586.4
280.356	586.2
280.744	584
281.131	606
281.519	593
281.907	582.2
282.295	580.4
282.682	587.6
283.07	583
283.458	599
283.846	591.2
284.235	597.2
284.623	580.8
285.011	576.4
285.399	587.8
285.788	585
286.176	564
286.565	590.2
286.953	581
287.342	580.2
287.731	575.8
288.119	582.8
288.508	576.8
288.897	581.4
289.286	567.2
289.675	585.6
290.064	592.4
290.453	584.8
290.821	589.8
291.21	602.6
291.599	570.4
291.989	580.2
292.378	584.6
292.768	597.4
293.157	591.6
293.547	585.8
293.936	579
294.326	576.4
294.716	588.8
295.106	576.2
295.496	588.2
295.886	595
296.276	584.6
296.666	580.4
297.056	580
297.446	572
297.836	597.4
298.227	585.6
298.617	583.6
299.008	594.8
299.398	585
299.789	582.6
300.179	590.4
300.57	597.8
300.961	586
301.352	585.2
301.742	592
302.133	582
302.524	583.8
302.915	585.6
303.307	574.8
303.698	588.8
304.089	588
304.48	578
304.872	583.8
305.263	588.2
305.655	580
306.046	587.8
306.438	584.4
306.829	576
307.221	595
307.613	592.4
308.005	594.6
308.397	600.4
308.789	603
309.181	607
309.573	594.2
309.965	593.8
310.357	576.2
310.749	588.6
311.142	577.8
311.534	577.2
311.926	586.8
312.319	588.6
312.711	580
313.104	595.8
313.497	587.2
313.889	621.4
314.282	598.8
314.675	602
315.068	588.8
315.461	590.6
315.854	611.6
316.247	589.4
316.64	578.2
317.033	584.8
317.405	588
317.798	578.4
318.192	590.6
318.585	577
318.979	584
319.372	581.4
319.766	585.4
320.16	586.4
320.553	593.2
320.947	597.4
321.341	586.4
321.735	583.4
322.129	578.4
322.523	606.2
322.917	574.4
323.311	594
323.705	591.4
324.099	584.8
324.494	583.6
324.888	581.8
325.282	581.8
325.677	599
326.071	588.2
326.466	591
326.861	588.2
327.255	594.2
327.65	595.4
328.045	601.8
328.44	582
328.835	588
329.23	586.4
329.625	605.2
330.02	580
330.415	595.2
330.81	582
331.206	585.4
331.601	580.6
331.996	593.6
332.37	603.4
332.766	577
333.161	611.6
333.557	582.4
333.953	582
334.348	870.2
334.744	586.4
335.14	582
335.536	579
335.932	591.2
336.328	577
336.724	594
337.12	588
337.516	584.8
337.913	583.8
338.309	599.2
338.705	589.4
339.102	593
339.498	577.4
339.895	590
340.291	582.4
340.688	591.6
341.085	576
341.481	576
341.878	579
342.275	595
342.672	570.4
343.069	577.8
343.466	579.6
343.842	591.4
344.239	577.2
344.636	583.2
345.033	576.6
345.431	574.8
345.828	589.8
346.225	573.6
346.623	605.8
347.02	583.2
347.418	583
347.816	597
348.213	573.6
348.611	586.8
349.009	581
349.407	595.4
349.805	578.4
350.203	570.8
350.601	590
350.999	581.8
351.397	623
351.795	578.2
352.193	587.4
352.57	589
352.969	591.4
353.367	573.2
353.766	576.8
354.164	583.2
354.563	590.2
354.961	578.2
355.36	581.6
355.759	580.6
356.158	570.8
356.557	576
356.956	570.6
357.355	569.2
357.754	579.6
358.153	585.8
358.552	594.6
358.951	579.4
359.35	591.2
359.75	582.4
360.149	572.4
360.527	571.4
360.926	574.8
361.326	580.2
361.726	584.2
362.125	577.6
362.525	586.2
362.925	578.4
363.325	573.8
363.724	583.6
364.124	572.8
364.524	573.8
364.924	578.8
365.324	584.2
365.725	567.6
366.125	580.2
366.525	575
366.904	573.6
367.304	560
367.705	594.2
368.105	588.8
368.506	571.4
368.906	579.6
369.307	576.8
369.708	584.6
370.108	567
370.509	585
370.91	568.2
371.311	576.8
371.712	574.6
372.113	579
372.514	570.8
372.894	575.6
373.295	569.8
373.696	583.6
374.097	585.2
374.499	607.8
374.9	588.8
375.301	574.6
375.703	581.2
376.105	575.2
376.506	587.6
376.908	579.6
377.309	579.8
377.711	584.6
378.113	578.2
378.493	576.6
378.895	577.4
379.297	586.2
379.699	568.2
380.102	585.8
380.504	574.4
380.906	576.8
381.308	589.4
381.71	582.8
382.113	574.2
382.515	571.8
382.918	579.2
383.299	576.6
383.701	580.8
384.104	578.2
384.507	561.4
384.909	571.8
385.312	565.4
385.715	565.4
386.118	575
386.521	572
386.924	577.6
387.327	572.2
387.709	566
388.112	568.4
388.515	571
388.918	575.8
389.322	583.4
389.725	574.2
390.129	590.4
390.532	576.4
390.936	575
391.339	571.8
391.743	576
392.125	574.8
392.529	583.6
392.933	589.6
393.337	587.8
393.74	573.6
394.144	573.2
394.548	574.8
394.953	576.4
395.357	580.6
395.761	581.6
396.144	577.4
396.548	573.4
396.952	578.4
397.357	579.2
397.761	574.2
398.166	580.2
398.57	576.6
398.975	576
399.379	581
399.763	612.8
400.168	575
400.572	582
400.977	572
401.382	591
401.787	586.4
402.192	590
402.597	587.4
403.002	563.8
403.386	591.4
403.791	590.2
404.197	573.8
404.602	582.6
405.007	568
405.413	568.8
405.818	579
406.224	579
406.608	579.4
407.014	575.8
407.42	579.6
407.825	575
408.231	585.2
408.637	580.6
409.043	588.8
409.449	576.2
409.834	568
410.24	584.4
410.646	579.6
411.052	588.6
411.458	584.4
411.865	581
412.271	585
412.677	574.6
413.062	585
413.469	567
413.875	598.2
414.282	586.6
414.689	586.2
415.095	587
415.502	569.4
415.888	577.2
416.294	565.4
416.701	609.8
417.108	571.8
417.515	586.2
417.923	572.2
418.33	595
418.715	587.2
419.123	572
419.53	567.6
419.937	577.6
420.345	591.2
420.752	580.8
421.16	584.4
421.546	580.8
421.953	580.6
422.361	565.6
422.769	583.6
423.177	574
423.585	594.4
423.992	587
424.379	590
424.787	582.2
425.195	599.6
425.603	580.2
426.011	592.4
426.419	587.8
426.806	581.8
427.214	577.6
427.623	590.8
428.031	591.6
428.44	579.8
428.848	596.4
429.235	595.6
429.644	590.2
430.053	582.6
430.461	604.8
430.87	611.4
431.279	598.4
431.666	587.6
432.075	596.8
432.484	607
432.893	603.4
433.302	625.8
433.711	641.4
434.099	620
434.508	629
434.918	627.4
435.327	644
435.737	645.8
436.125	653.2
436.534	661.4
436.944	665.8
437.353	672
437.763	686.8
438.173	668
438.561	682.2
438.971	665.4
439.381	696.2
439.791	702.4
440.201	686
440.589	706.8
440.999	719.8
441.409	713
441.819	705.6
442.23	737.2
442.619	732.6
443.029	744.6
443.439	742.6
443.85	742
444.26	757.4
444.649	748.6
445.06	760.6
445.471	749.8
445.881	757.4
446.292	776.4
446.682	770
447.092	757.8
447.503	813.8
447.914	771
448.325	765.8
448.715	767.8
449.126	765
449.537	774.4
449.948	771
450.338	787.2
450.75	784.6
451.161	780
451.572	793
451.984	787.8
452.374	785.8
452.786	787.2
453.197	790.6
453.609	790.4
453.999	774.4
454.411	782.2
454.823	790
455.235	793
455.647	792
456.037	803
456.449	783.8
456.862	791.2
457.274	804.2
457.665	798.4
458.077	790.8
458.489	810.6
458.902	789.2
459.293	801.2
459.705	799.8
460.118	784.8
460.53	800.4
460.921	794.4
461.334	804.6
461.747	803.4
462.16	803.2
462.551	805.8
462.964	808.6
463.377	800.8
463.79	804.8
464.182	806.6
464.595	796.6
465.008	801.4
465.421	795.8
465.813	805.8
466.226	804.6
466.64	795.4
467.053	833.4
467.445	816.2
467.859	808.6
468.272	797.6
468.686	811.4
469.078	792.8
469.492	788.4
469.906	798.6
470.298	796
470.712	793.8
471.126	823.6
471.54	776.2
471.933	791.2
472.347	795.6
472.761	798.4
473.175	797.8
473.568	786
473.982	785.6
474.397	796.6
474.79	780
475.204	794.2
475.619	790.4
476.033	793.8
476.426	790.2
476.841	781.6
477.256	802.6
477.649	783
478.064	779.8
478.479	775
478.872	788.6
479.287	759.6
479.702	775.8
480.118	771.2
480.511	774.4
480.927	774
481.342	770.2
481.736	766.4
482.151	773.6
482.566	781
482.96	768.8
483.376	791.8
483.792	775.6
484.186	773.6
484.602	768.6
485.017	768.2
485.412	771.4
485.827	774.6
486.243	772.2
486.638	784.2
487.054	764.8
487.47	771.8
487.865	751.6
488.281	752.8
488.697	763
489.092	764.8
489.508	746.6
489.925	761.8
490.32	742.2
490.736	750.4
491.153	755.6
491.548	747
491.964	753.6
492.381	746
492.776	743.2
493.193	740.2
493.61	744.2
494.006	743.8
494.422	743.2
494.84	727.8
495.235	749.4
495.652	734
496.069	742
496.465	724.6
496.883	739
497.3	756.6
497.696	739.4
498.113	727.8
498.509	722.6
498.927	720.4
499.344	713.8
499.741	720.6
500.158	735.6
500.576	722.2
500.973	715.6
501.39	712
501.787	708.2
502.205	709.4
502.623	710.6
503.02	694.8
503.438	708.2
503.856	709.8
504.253	709.2
504.671	708
505.068	708.8
505.486	703.8
505.905	722.6
506.302	703.2
506.72	704.4
507.118	699.4
507.536	694
507.955	689.8
508.352	698.4
508.771	699.2
509.169	701.4
509.587	695.4
510.006	692.8
510.404	679.2
510.823	685.2
511.221	695.2
511.64	676
512.038	695.8
512.457	684
512.877	684.8
513.275	673.6
513.694	666.4
514.092	670.2
514.512	680.6
514.91	686.4
515.33	669.8
515.749	677.6
516.148	678.2
516.568	670.6
516.966	674.8
517.386	664.6
517.785	670
518.205	663.8
518.603	661
519.024	667.8
519.444	662.2
519.843	671
520.263	674.6
520.662	664.2
521.082	657.6
521.481	661.6
521.902	662.8
522.301	659
522.722	655
523.121	655.6
523.542	657
523.963	654.4
524.362	651.6
524.783	651.6
525.183	649.6
525.604	643.6
526.003	642.2
526.425	641.4
526.824	655.2
527.246	659
527.646	660
528.067	642
528.467	642.2
528.888	646.2
529.289	644.2
529.71	650
530.11	641.8
530.532	637.2
530.932	627.4
531.354	634.4
531.755	661.2
532.176	641.4
532.577	640.2
532.999	643
533.4	633.4
533.822	639.4
534.223	639
534.645	623.4
535.046	621
535.468	624.4
535.869	636.2
536.292	622.2
536.693	654.4
537.115	624.2
537.516	619.4
537.939	616.8
538.34	643.2
538.742	641.4
539.165	627.2
539.566	622.2
539.989	623
540.391	626.2
540.814	625.2
541.216	621.8
541.639	618.2
542.041	628.8
542.464	622.4
542.866	616.4
543.268	603.8
543.691	632.8
544.093	622.2
544.517	632.4
544.919	616
545.343	632
545.745	607
546.147	624.4
546.571	607.8
546.974	606.2
547.398	613
547.8	629.8
548.224	612
548.627	608
549.03	614.8
549.454	611.6
549.857	603.8
550.281	615.2
550.684	601.2
551.087	617.4
551.512	607.2
551.915	618.2
552.34	615.2
552.743	604.8
553.146	611.8
553.571	602.8
553.975	623
554.399	606.6
554.803	637.4
555.207	602.6
555.632	597.2
556.036	599.2
556.461	595.2
556.865	600.8
557.268	597.6
557.694	602.2
558.098	598.6
558.502	607
558.927	591.2
559.332	597
559.736	596.6
560.162	596.4
560.566	600
560.992	600.8
561.396	596
561.801	602.8
562.227	594
562.631	604.2
563.036	600.4
563.462	603.4
563.867	596.2
564.272	588.8
564.698	596
565.103	584.6
565.508	609.8
565.935	593.8
566.34	586.2
566.745	600.2
567.172	594.2
567.577	605.6
567.982	592.2
568.409	589.6
568.815	590.8
569.22	587.8
569.626	595.4
570.053	585.2
570.459	587
570.865	596.8
571.292	597.4
571.698	600.8
572.104	582.6
572.531	584
572.937	604.4
573.343	590.8
573.75	582.8
574.177	590.8
574.583	593.6
574.99	583.8
575.396	579
575.824	585.2
576.231	589.4
576.637	580.8
577.065	610.6
577.472	584.6
577.879	583.6
578.286	599.6
578.714	582
579.121	578.2
579.528	589
579.935	594.4
580.364	584.6
580.771	574.6
581.178	573.6
581.585	595
582.014	586.8
582.421	575.4
582.829	581
583.236	591.8
583.644	579.4
584.073	589
584.481	582.8
584.889	574
585.296	580.6
585.726	576.6
586.134	568.8
586.542	570.2
586.95	595
587.358	577.6
587.787	586.4
588.196	594.4
588.604	578.6
589.012	568.8
589.421	571
589.851	567.4
590.259	584.2
590.668	575
591.076	599.6
591.485	576
591.894	579.2
592.324	586.8
592.733	578
593.142	569
593.551	573.2
593.96	575.4
594.369	569.6
594.8	575.2
595.209	579.2
595.618	561.6
596.028	571.4
596.437	568.8
596.847	577.6
597.256	580.4
597.687	576.2
598.097	567.6
598.507	568.4
598.917	579
599.327	580.4
599.736	568.2
600.146	584.6
600.556	576.4
600.988	583.8
601.398	566
601.808	586
602.219	568
602.629	580.8
603.039	577.6
603.45	586.8
603.86	572.8
604.271	580.4
604.703	574.4
605.114	574.4
605.525	573.2
605.935	576.4
606.346	587
606.757	576.6
607.168	564.4
607.579	559
607.99	584.8
608.402	566.6
608.813	569.6
609.224	562
609.636	557.8
610.047	569
610.48	572
610.892	577.4
611.303	579.8
611.715	572.4
612.127	567.4
612.539	567.2
612.95	570
613.362	564.2
613.774	562.4
614.186	566.6
614.599	566
615.011	580.2
615.423	564.4
615.835	571.2
616.248	555.8
616.66	579
617.073	571.4
617.485	562.4
617.898	575.2
618.311	570
618.723	572.6
619.136	592.6
619.549	578.2
619.962	585.8
620.375	571.2
620.788	571.2
621.201	560.4
621.614	572.8
622.028	570.4
622.441	565.4
622.854	571.8
623.268	556
623.681	571.2
624.095	566
624.509	574.6
624.922	574.4
625.336	552
625.728	560.6
626.142	580.2
626.556	573.8
626.97	571.8
627.384	564.4
627.799	558.8
628.213	570.2
628.627	564
629.041	564
629.456	565.4
629.87	561
630.285	571.2
630.699	570.4
631.093	562.8
631.507	559.8
631.922	560.4
632.337	576.2
632.752	563.4
633.167	565
633.582	561.2
633.997	562.2
634.412	556
634.806	570.6
635.221	560.4
635.637	569.6
636.052	552
636.468	568.6
636.883	579.8
637.299	557.6
637.715	560.2
638.109	573.4
638.525	567.6
638.941	567.4
639.357	569.8
639.773	575
640.189	567
640.584	566.2
641	569.2
641.416	553.6
641.832	564.2
642.249	564.8
642.665	566
643.06	568.8
643.477	576.2
643.894	567.4
644.31	565.4
644.727	558.4
645.123	566.8
645.54	557.8
645.957	570.2
646.374	576.8
646.77	562.2
647.187	585.2
647.604	564
648.021	548.4
648.439	559.4
648.835	568.4
649.252	565.6
649.67	561.2
650.088	568.4
650.484	566.2
650.902	564.8
651.32	572.2
651.738	562.8
652.134	563.6
652.552	580.2
652.971	569.2
653.389	557.8
653.786	578.2
654.204	586.6
654.622	556
655.019	562.4
655.438	564.4
655.857	563.4
656.275	568
656.673	555
657.091	566.2
657.51	559.8
657.908	568
658.327	580.8
658.746	549.2
659.144	559.2
659.563	568.6
659.982	560.2
660.38	560.6
660.8	561.8
661.219	568.2
661.617	567.8
662.037	561.6
662.457	577.2
662.855	557.2
663.275	582.6
663.695	564.4
664.094	560.6
664.514	564.8
664.934	556
665.333	575.6
665.753	558.6
666.152	553
666.572	553.2
666.993	566.6
667.392	561
667.812	561.8
668.212	560.6
668.632	570.8
669.053	554.8
669.453	563.6
669.874	558
670.273	569.4
670.694	560.4
671.116	570.4
671.515	573.4
671.937	558.4
672.337	566.4
672.758	562.2
673.158	562.2
673.58	556.8
673.98	558.4
674.402	570.8
674.824	561.8
675.224	559
675.646	556.4
676.047	560
676.469	560.8
676.869	563.4
677.292	566.6
677.693	556.6
678.115	559.8
678.516	561
678.939	565
679.34	559.6
679.762	570.6
680.164	557.4
680.586	555
680.988	563.4
681.411	582.4
681.812	549.2
682.236	551.4
682.637	556.4
683.061	555.6
683.462	558
683.864	561.6
684.288	564.4
684.69	557.6
685.114	567.2
685.516	569.2
685.94	554.6
686.342	564.4
686.766	553.2
687.168	557.6
687.571	578.4
687.995	564.8
688.398	554.8
688.822	559.4
689.225	574
689.628	571.2
690.052	559.8
690.456	560
690.88	563.8
691.284	560.8
691.687	567.4
692.112	557.2
692.515	554
692.919	564.8
693.344	567.2
693.747	561.6
694.173	553.4
694.577	566.8
694.98	564.2
695.406	556.4
695.81	560.2
696.214	562
696.64	561.6
697.044	559.6
697.448	570.2
697.874	552.4
698.279	558.8
698.684	563.2
699.11	559.8
699.514	557
699.919	561.2
700.324	556.2
700.75	559.6
701.156	554.4
701.561	575.6
701.987	558.6
702.393	562.6
702.798	572
703.203	552
703.63	557.2
704.036	552
704.442	555.2
704.847	547.8
705.274	558.4
705.68	564
706.086	562.6
706.492	551.4
706.92	560.2
707.326	561.8
707.732	560
708.139	554
708.545	550.8
708.973	554.6
709.38	556
709.786	559.2
710.193	568.2
710.6	558.4
711.028	556.2
711.435	554.4
711.842	562.4
712.249	559.4
712.656	559.6
713.064	565
713.492	563.8
713.9	552.6
714.307	570.6
714.715	556.2
715.123	567
715.53	564.8
715.938	568
716.367	555.2
716.775	559.4
717.184	547.8
717.592	555.2
718	561.4
718.408	585.8
718.816	591.8
719.225	562.2
719.633	555.2
720.042	554.8
720.472	559
720.881	567.6
721.29	566.8
721.699	553.4
722.108	559.6
722.517	559
722.926	553.2
723.335	561.2
723.744	552.4
724.154	558.6
724.563	553.2
724.973	553.4
725.382	558.4
725.792	552.2
726.202	546.2
726.612	573.8
727.022	554.8
727.432	556.8
779.813	557
780.223	599.8
780.634	549.6
781.044	547.4
781.454	554.8
781.865	565.2
782.276	545.8
782.686	564.4
783.097	561.4
783.508	555.4
783.919	558.4
784.33	562.2
784.741	557.6
785.152	554.6
785.563	544.6
785.974	547
786.386	572.4
786.776	553.8
787.188	554.8
787.599	547.8
788.011	562.6
788.423	558
788.835	558.2
789.247	554.8
789.659	547.6
790.071	552.2
790.483	589.6
790.874	550.8
791.286	562.8
791.699	553.6
792.111	556
792.524	565
792.937	556
793.349	553.4
793.741	556.4
794.154	548.2
794.567	570.2
794.98	553.6
795.393	545.6
795.785	565.2
796.198	553
796.612	562
797.026	558.8
797.439	539.8
797.831	548.4
798.245	545.4
798.659	553.2
799.073	550.2
799.487	551.4
799.88	552.8
800.294	558.6
800.708	554.8
801.123	550.4
801.516	567.4
801.93	544.2
802.345	547.2
802.76	553.2
803.153	566.2
803.568	564
803.983	561.8
804.377	557
804.792	549
805.207	546
805.601	555.8
806.016	577.2
806.432	556.2
806.826	575
807.242	559.6
807.658	555.8
808.052	553.6
808.468	549.6
808.884	555.8
809.279	559
809.695	565.4
810.111	569.2
810.506	555.8
810.922	570.8
811.339	558.2
811.734	561.8
812.151	554.6
812.546	561.4
812.963	552.2
813.38	552.4
813.776	560.4
814.193	573.8
814.589	553.4
815.006	551.4
815.402	557
815.82	557.6
816.237	554.6
816.633	558.6
817.051	548.8
817.448	555.2
817.866	548.4
818.262	578.2
818.68	556.8
819.077	552.4
819.495	558.2
819.892	586.2
820.311	548
820.708	556.2
821.127	556.4
821.524	567
821.943	558.4
822.34	564
822.759	552.4
823.157	556.8
823.576	568.6
823.974	562.6
824.393	590
824.791	554.6
825.189	550
825.609	551.6
826.007	559.2
826.427	548.8
826.826	550
827.246	563.4
827.644	553.2
828.043	563
828.463	554.2
828.862	565.4
829.261	563.4
829.682	545.4
830.081	558.6
830.502	551.6
830.901	553.4
831.301	565.6
831.722	547.2
832.121	546.4
832.521	550.8
832.943	555.4
833.342	556.6
833.742	544.4
834.164	551.2
834.564	545.8
834.965	562.8
835.386	552.4
835.787	556.2
836.188	563.8
836.588	559.2
837.01	555.4
837.411	543.4
837.812	555.2
838.213	566.6
838.636	556.2
839.037	607
839.438	555.6
839.84	558.8
840.263	566.4
840.664	556.6
841.066	556.6
841.468	551.2
841.891	549.8
842.293	560.2
842.695	568
843.098	564.8
843.5	551.2
843.902	555.6
844.326	554
844.729	555.4
845.131	568.2
845.534	557.8
845.937	564.2
846.34	563.6
846.764	555.2
847.167	550.8
847.571	551
847.974	552.4
848.377	547.8
848.781	593.4
849.184	567.8
849.588	555.8
849.992	551.6
850.396	553.8
850.821	570.4
851.225	547.6
851.63	549.2
852.034	557.4
852.438	553.6
852.843	569.2
853.247	550.6
853.652	547.6
854.057	565
854.462	552.2
854.867	554.4
855.272	571.6
855.677	561
856.082	544.6
856.487	544.4
856.893	554.2
857.298	549.6
857.704	555.8
858.11	555.8
858.516	556.8
858.922	558.8
859.328	562.8
859.734	560.6
860.14	557.4
860.525	556.2
860.931	543.4
861.338	551.2
861.745	557.8
862.151	564.2
862.558	550.6
862.965	552.4
863.372	551.2
863.779	557.8
864.186	573.2
864.572	557.8
864.98	564
865.387	573.4
865.795	546.2
866.203	552.6
866.61	546.6
867.018	558.2
867.405	560.4
867.813	554.6
868.221	550.4
868.63	550.8
869.038	559.8
869.425	580.2
869.834	554.4
870.243	546.8
870.652	554.6
871.039	551.4
871.448	550.2
871.857	555
872.266	554.6
872.654	551.2
873.064	551.8
873.473	550.6
873.883	551.4
874.271	547.8
874.681	557.4
875.091	538
875.48	556.6
875.89	559
876.3	549.2
876.689	547.2
877.1	554.8
877.51	557.2
877.9	567
878.31	545.4
878.721	570.8
879.111	549
879.522	542.2
879.933	547
880.323	546.8
880.734	543.8
881.125	554.8
881.536	546.4
881.948	540
882.338	557.2
882.75	557.4
883.141	551.6
883.553	559.6
883.944	575
884.356	562.4
884.769	560.8
885.16	559.2
885.573	545
885.964	545.2
886.377	555
886.768	542.6
887.181	551.6
887.573	542.6
887.987	549.6
888.378	551
888.792	555.2
889.184	590
889.598	547.6
889.99	556.4
890.383	550.6
890.797	543
891.19	559.4
891.604	546.4
891.997	547.6
892.411	542.4
892.805	543
893.198	545
893.613	536
894.006	547.8
894.421	539.4
894.815	547.4
895.209	552.8
895.624	578.6
896.018	570
896.412	553.4
896.828	548.4
897.222	559.6
897.617	551.6
898.033	562.8
898.427	557
898.822	556
899.239	540
899.634	539.8
900.029	564.4
900.424	542
900.841	542.6
901.236	566.2
901.632	560
902.027	585
902.445	549.4
902.841	553.6
903.237	548.4
903.633	553.4
904.05	559.4
904.447	554
904.843	559.6
905.24	562.6
905.636	551.4
906.033	553
906.451	559.2
906.848	545
907.246	547.8
907.643	550.8
908.04	552.6
908.438	565.4
908.835	551.2
909.254	548.8
909.652	557.8
910.05	544.4
910.448	549.6
910.846	554.8
911.244	548.8
911.643	561.8
912.041	553
912.44	566
912.839	558
913.237	551
913.636	548.6
914.035	554.8
914.434	551.2
914.834	562.8
915.233	565.6
915.633	551.4
916.032	547.6
916.432	551.2
916.832	562.2
917.232	549.2
917.632	543.2
918.032	555.8
918.432	551.6
918.833	547.6
919.233	551
919.634	540
920.035	562
920.436	536.2
920.837	554.8
921.238	548.6
921.639	543.8
922.019	554.4
922.42	554
922.822	559.8
923.224	557
923.625	547.4
924.027	555.2
924.429	569.8
924.81	546.6
925.212	563.2
925.615	556.8
926.017	546.2
926.42	569
926.801	556.2
927.204	542.4
927.607	556.8
928.01	564
928.413	553.4
928.795	546.8
929.199	550
929.602	546.2
930.006	548.4
930.388	550.2
930.792	553.8
931.196	554.6
931.579	574
931.983	546.6
932.388	591
932.771	544.6
933.176	547.2
933.58	556.6
933.964	557.2
934.369	547.8
934.774	553.6
935.158	543.8
935.563	552.4
935.947	556.6
936.353	552.8
936.759	553.2
937.143	555.8
937.549	556
937.934	562.6
938.34	566.2
938.746	539.2
939.131	552.4
939.538	543.4
939.923	551.4
940.33	551.2
940.716	546.2
941.123	553.4
941.508	555
941.916	564.8
942.302	563.2
942.709	545.8
943.096	547.2
943.503	552.4
943.89	555.6
944.298	542.2
944.685	578
945.072	545.2
945.48	557.4
945.867	541.6
946.276	549.4
946.663	573
947.051	561.8
947.46	559.8
947.848	551.2
948.257	557.6
948.645	546.8
949.033	545
949.443	536.2
949.831	588.6
950.22	545.4
950.63	561
951.018	567
951.407	549.6
951.796	545.4
952.207	558.6
952.596	550.2
952.985	548.6
953.375	573
953.786	551.6
954.176	544.4
954.566	553.6
954.956	547.4
955.367	550
955.758	563.8
956.148	540.8
956.539	557.2
956.929	542.8
957.341	544.4
957.732	547.8
958.123	557.4
958.515	548.6
958.906	557.8
959.297	550.2
959.689	553.8
960.102	547.6
960.494	550
960.886	553.2
961.278	540.4
961.67	566.8
962.062	573.4
962.455	544.6
962.847	541.2
963.24	545.2
963.633	548
964.026	539
964.419	546.6
964.812	555.2
965.206	549
965.599	557.8
965.993	544.8
966.386	553
966.78	562.8
967.174	556.6
967.569	552.6
967.963	551
968.357	542
968.752	542
969.146	546.8
969.541	542.4
969.936	543
970.331	548.8
970.705	544.6
971.1	543.4
971.496	555
971.892	547.4
972.287	545.2
972.683	547
973.079	543.4
973.454	556.8
973.85	552.6
974.247	556.8
974.643	569.6
975.04	553.2
975.415	543
975.812	537.8
976.209	551
976.607	537.8
976.982	555.6
977.38	563.2
977.778	553
978.175	553.4
978.552	550.4
978.95	551.8
979.348	547.8
979.725	577.4
980.123	549.6
980.522	547.6
980.899	542
981.298	543.6
981.697	542
982.075	546.4
982.474	546.2
982.852	545.8
983.251	552
983.651	544.8
984.029	551.4
984.429	543.2
984.808	537.4
985.208	550
985.609	546.4
985.987	537
986.388	549.4
986.768	560.8
987.168	549.2
987.548	556
987.949	561.2
988.329	552
988.731	545.6
989.111	548
989.491	543.2
989.893	552.2
990.273	552.4
990.676	548.6
991.057	540.2
991.459	551.6
991.84	549.8
992.221	543.8
992.624	562.4
993.006	557.4
993.388	544.8
993.791	557.6
994.173	549.4
994.576	571.6
994.959	539
995.341	550.6
995.724	548.6
996.128	546.8
996.511	548.6
996.894	541.6
997.298	545.4
997.681	554.6
998.065	552.2
998.448	553.4
998.854	555
999.237	544.2
999.621	560.2
1000.01	567
1000.39	549
1000.8	546.6
1001.18	556.4
1001.56	554
1001.95	552.2
1002.33	559.4
1002.72	555.4
1003.13	551.6
1003.51	548.8
1003.9	545.8
1004.28	562.4
1004.67	547.8
1005.06	555.6
1005.44	574.2
1005.83	534.8
1006.21	543.4
1006.6	549.4
1006.99	550.2
1007.37	558.2
1007.76	554.8
1060.12	546.8
1060.51	548.2
1060.89	555.4
1061.28	557.2
1061.67	558.8
1062.06	558.6
1062.45	555.2
1062.83	549.4
1063.22	556.6
1063.61	580
1064	552.8
1064.39	550
1064.78	548.6
1065.14	560.8
1065.53	551.8
1065.92	553.4
1066.31	536.4
1066.7	547
1067.09	553.6
1067.46	555
1067.85	543.4
1068.24	545
1068.63	548.6
1069.02	553.8
1069.39	552.2
1069.78	548.6
1070.17	544.6
1070.57	544.6
1070.93	546.6
1071.33	543.8
1071.72	549.4
1072.11	548.6
1072.48	548.6
1072.87	544.2
1073.26	552.6
1073.64	550.6
1074.03	545.8
1074.4	541.2
1074.79	549.2
1075.19	553.2
1075.56	544.8
1075.95	547.4
1076.34	546.4
1076.72	550.4
1077.11	557
1077.48	558
1077.88	551.4
1078.25	550.8
1078.64	556.2
1079.02	553.8
1079.41	554.2
1079.78	550
1080.18	547.2
1080.55	599
1080.95	545.6
1081.32	545.4
1081.72	548.4
1082.09	545
1082.49	544.8
1082.86	549.8
1083.24	540.2
1083.63	546.2
1084.01	544.6
1084.38	550.8
1084.78	554.6
1085.16	559.4
1085.55	562
1085.93	558.6
1086.31	547.6
1086.7	566.2
1087.08	553.6
1087.46	541.4
1087.83	543
1088.23	546.8
1088.61	550
1088.99	549.6
1089.36	545.4
1089.76	546.8
1090.14	544.4
1090.52	539.8
1090.9	543.2
1091.27	559
1091.67	565
1092.05	542.6
1092.43	555
1092.81	555.2
1093.19	554.2
1093.57	540
1093.95	537.4
1094.35	553.4
1094.73	551
1095.11	541
1095.49	549.6
1095.87	541.2
1096.25	550
1096.63	553.6
1097.01	544.4
1097.39	550.4
1097.77	549
1098.15	546.2
1098.53	542.2
1098.91	550.4
1099.29	547.6
1099.68	560
1100.06	561
1100.44	547.6
1100.82	541.4
1101.18	551.2
1101.56	541
1101.95	543.6
1102.33	549.2
1102.71	550.2
1103.1	535.2
1103.48	539
1103.86	546.2
1104.22	551.4
1104.61	544.8
1104.99	542
1105.38	534.8
1105.76	554.2
1106.12	544
1106.51	576.2
1106.89	549
1107.26	548.8
1107.64	553.6
1108.03	544
1108.41	539.4
1108.78	543
1109.16	545.4
1109.55	553
1109.91	540.6
1110.3	530.8
1110.69	556
1111.05	549.4
1111.44	542
1111.8	547.6
1112.19	548.8
1112.58	548.8
1112.94	537
1113.33	538
1113.7	539
1114.09	538.8
1114.45	540.8
1114.84	547.2
1115.21	543.2
1115.6	545
1115.96	543
1116.35	553.6
1116.72	545.8
1117.11	561.8
1117.48	547.2
1117.85	555.6
1118.24	555.2
1118.6	549.6
1118.99	544.2
1119.36	545.2
1119.73	548.8
1120.12	544.6
1120.49	538
1120.86	548.8
1121.25	541
1121.62	544.8
1121.99	543.6
1122.38	554.2
1122.76	543.6
1123.13	545.6
1123.5	552.4
1123.89	556.4
1124.26	533.8
1124.63	554.6
1125	548
1125.4	545.2
1125.77	539.4
1126.14	534.4
1126.51	544.4
1126.88	548.2
1127.26	542.4
1127.63	533.6
1128.02	545.6
1128.4	540
1128.77	545.6
1129.14	541.8
1129.52	544.2
1129.89	549
1130.26	544.2
1130.64	535
1131.01	545.2
