#lambda/nm	C1
208.295	548.6
208.67	493.2
209.045	456.2
209.419	451.4
209.794	601.6
210.169	590
210.544	685.4
210.919	610.2
211.295	585.4
211.67	597.4
212.045	599.4
212.421	596.8
212.796	626.8
213.172	589
213.547	592
213.923	595
214.299	592.8
214.675	603.2
215.051	594
215.427	604.8
215.803	610.4
216.179	599.8
216.555	588.4
216.932	605.4
217.308	593.6
217.684	593.2
218.061	599.6
218.438	599.4
218.814	590.8
219.191	598.2
219.568	585.2
219.945	594
220.322	595.2
220.699	600.4
221.076	594.6
221.453	593.4
221.83	593.4
222.208	589.2
222.585	588.4
222.962	594.2
223.34	594.6
223.717	596.2
224.095	594.2
224.473	589.4
224.851	584.4
225.229	586.8
225.607	611.8
225.985	585.2
226.363	595.8
226.741	599
227.119	596.4
227.497	605.2
227.876	584.2
228.254	596.4
228.633	606.8
229.011	597.4
229.39	592
229.769	597.8
230.148	601.6
230.527	611.6
230.905	594.8
231.284	597.6
231.664	587.8
232.043	612.6
232.422	608
232.801	591
233.181	606.2
233.56	593.4
233.94	596.4
234.319	585.6
234.699	590.2
235.079	627.4
235.458	623.4
235.838	609.4
236.218	592
236.598	579.6
236.978	597.4
237.358	595.4
237.738	590.6
238.119	598.2
238.499	593
238.88	599.8
239.26	601
239.641	589.6
240.021	586.4
240.402	594
240.783	586.6
241.163	584
241.544	602
241.925	590.4
242.306	610
242.687	589.6
243.069	596.8
243.45	608.4
243.831	591.8
244.212	590.6
244.594	630.2
244.975	604
245.357	602
245.739	590.8
246.12	588.8
246.502	606.8
246.884	587.2
247.266	595.2
247.648	597.8
248.03	609.2
248.412	596.8
248.794	597
249.176	588
249.559	608.2
249.941	591.8
250.323	584.8
250.706	586.4
251.089	594
251.471	593.6
251.854	597.4
252.237	595.4
252.62	602
253.002	594
253.385	589.6
253.769	598.8
254.152	588.2
254.535	594.4
254.918	584.2
255.301	590.4
255.685	596.8
256.068	583.2
256.452	617.2
256.835	596.2
257.219	597.6
257.603	603
257.986	588.2
258.37	599.6
258.754	579.8
259.138	597.6
259.522	605.6
259.906	587.8
260.29	602.4
260.675	585
261.059	586
261.443	589
261.828	590
262.212	595.2
262.597	582.2
262.981	591.6
263.366	586.8
263.751	598
264.136	593.6
264.521	593
264.906	582.8
265.291	603
265.676	588
266.061	603.2
266.446	609
266.831	596
267.217	611
267.602	592.2
267.987	591.2
268.373	601.4
268.759	606.6
269.144	604.6
269.53	595.8
269.916	588
270.302	588.4
270.688	608.4
271.074	597.4
271.46	609.4
271.846	624.6
272.232	597.6
272.618	588
273.004	596.2
273.391	609.4
273.777	610
274.164	594.6
274.55	612.4
274.937	598.8
275.324	593.8
275.71	595.8
276.097	599.6
276.484	587
276.871	596.6
277.258	594
277.645	581.8
278.032	595.8
278.419	595.4
278.807	589.6
279.194	588.2
279.581	591.2
279.969	601.8
280.356	597.6
280.744	591.6
281.131	619.8
281.519	608
281.907	593
282.295	585.2
282.682	601.6
283.07	603
283.458	602.2
283.846	603
284.235	611.8
284.623	607.4
285.011	590.4
285.399	601.6
285.788	594.4
286.176	588.2
286.565	600.4
286.953	592
287.342	593.2
287.731	586.2
288.119	585.6
288.508	594.6
288.897	588.4
289.286	583
289.675	599
290.064	604.8
290.453	595.2
290.821	589.6
291.21	619.8
291.599	592.6
291.989	601
292.378	608.8
292.768	614.8
293.157	602.8
293.547	604.8
293.936	600.6
294.326	595.4
294.716	593
295.106	593
295.496	603.2
295.886	597.8
296.276	593.2
296.666	589.4
297.056	581.6
297.446	582.2
297.836	610.8
298.227	593.8
298.617	602.2
299.008	605.4
299.398	580.8
299.789	585.6
300.179	594.4
300.57	594.8
300.961	582.4
301.352	588.2
301.742	590.4
302.133	594.8
302.524	586.2
302.915	594.2
303.307	586
303.698	600
304.089	590.2
304.48	593
304.872	598.6
305.263	590.2
305.655	589.2
306.046	600.4
306.438	591.6
306.829	588
307.221	604.2
307.613	599.2
308.005	603
308.397	603.2
308.789	612.6
309.181	613.8
309.573	606.8
309.965	612.8
310.357	599.6
310.749	609.4
311.142	589.4
311.534	592
311.926	593
312.319	595.8
312.711	585.8
313.104	607.4
313.497	588.8
313.889	628.4
314.282	609.8
314.675	611.8
315.068	587.6
315.461	600.8
315.854	623
316.247	602.4
316.64	586
317.033	593.4
317.405	590.4
317.798	598
318.192	598.2
318.585	582.4
318.979	601.6
319.372	589
319.766	594.6
320.16	604.8
320.553	607
320.947	608.2
321.341	592
321.735	598
322.129	576.8
322.523	613
322.917	589.6
323.311	606.4
323.705	596.8
324.099	600.4
324.494	607.4
324.888	597.6
325.282	594.6
325.677	611
326.071	605.2
326.466	603
326.861	601
327.255	602.6
327.65	609.2
328.045	606
328.44	598.6
328.835	593.6
329.23	587.2
329.625	613.2
330.02	591.2
330.415	619
330.81	597.4
331.206	603.4
331.601	594.8
331.996	601.2
332.37	616.8
332.766	585.6
333.161	616.8
333.557	598.8
333.953	592.8
334.348	780.6
334.744	598.8
335.14	596.2
335.536	593
335.932	598
336.328	593.4
336.724	606.8
337.12	601.2
337.516	602.4
337.913	592.8
338.309	610.2
338.705	592.8
339.102	601.2
339.498	589.4
339.895	598.2
340.291	595.2
340.688	596
341.085	587
341.481	597.8
341.878	588.2
342.275	618
342.672	591.8
343.069	595.6
343.466	582
343.842	602
344.239	588.8
344.636	600.2
345.033	590.2
345.431	588
345.828	593.8
346.225	588
346.623	624
347.02	588.6
347.418	595.6
347.816	607
348.213	590.2
348.611	600.6
349.009	584
349.407	603.4
349.805	587
350.203	583.4
350.601	602.4
350.999	593.2
351.397	642.6
351.795	587.6
352.193	600
352.57	596.6
352.969	599
353.367	588
353.766	579.4
354.164	589.2
354.563	597.4
354.961	591.4
355.36	588.2
355.759	591.8
356.158	583
356.557	581.2
356.956	581
357.355	575.2
357.754	592.8
358.153	593.6
358.552	607
358.951	596.6
359.35	601.8
359.75	585.4
360.149	578.8
360.527	573.6
360.926	579.6
361.326	588.8
361.726	595
362.125	582.4
362.525	598.4
362.925	590.8
363.325	592
363.724	591.2
364.124	579.6
364.524	579.6
364.924	588.8
365.324	594.4
365.725	572
366.125	597.2
366.525	585.8
366.904	585.2
367.304	576.6
367.705	598.2
368.105	605
368.506	590.6
368.906	592.6
369.307	585.8
369.708	594.8
370.108	580.4
370.509	595
370.91	587.4
371.311	594.4
371.712	592.8
372.113	589.8
372.514	573.4
372.894	585.6
373.295	578.8
373.696	600
374.097	593
374.499	623.4
374.9	592.6
375.301	581.2
375.703	591.8
376.105	585.2
376.506	591.4
376.908	603.6
377.309	591.6
377.711	586.6
378.113	585.6
378.493	591.4
378.895	588.8
379.297	599.4
379.699	580.8
380.102	590
380.504	586.2
380.906	581.6
381.308	609.6
381.71	584
382.113	592.6
382.515	584.2
382.918	592.2
383.299	587.8
383.701	595.8
384.104	590.6
384.507	574
384.909	591
385.312	579.4
385.715	578
386.118	589.8
386.521	574.6
386.924	596
387.327	577
387.709	576.8
388.112	570
388.515	582.6
388.918	589.6
389.322	594.4
389.725	585.4
390.129	601.2
390.532	592.2
390.936	590.4
391.339	586
391.743	592.8
392.125	584
392.529	590.6
392.933	596.4
393.337	580.8
393.74	589
394.144	589.2
394.548	581.6
394.953	587.2
395.357	598.8
395.761	582.2
396.144	581.6
396.548	588.2
396.952	580.2
397.357	590.6
397.761	584.8
398.166	582.4
398.57	578.2
398.975	569.6
399.379	576
399.763	622.4
400.168	581
400.572	579.4
400.977	585
401.382	601.8
401.787	591.4
402.192	596
402.597	602.8
403.002	574.2
403.386	601.2
403.791	598.6
404.197	593
404.602	586.6
405.007	589.8
405.413	584.8
405.818	587.2
406.224	583.4
406.608	580.6
407.014	584.8
407.42	602.8
407.825	586.6
408.231	586.8
408.637	588.6
409.043	595.4
409.449	580
409.834	581.6
410.24	588.4
410.646	590.2
411.052	585.2
411.458	591.2
411.865	597.6
412.271	597.8
412.677	587.6
413.062	594
413.469	578.4
413.875	610.2
414.282	603.2
414.689	587.4
415.095	589
415.502	581.6
415.888	592
416.294	572.6
416.701	621.2
417.108	583.6
417.515	590.8
417.923	587.2
418.33	598
418.715	594.4
419.123	581.4
419.53	582.6
419.937	589.2
420.345	602.2
420.752	576
421.16	595.4
421.546	582.6
421.953	588.2
422.361	575.4
422.769	593.6
423.177	579.4
423.585	616.2
423.992	605.4
424.379	600.2
424.787	595.4
425.195	610.4
425.603	591.4
426.011	596.6
426.419	603.2
426.806	590.2
427.214	597.8
427.623	601
428.031	606.8
428.44	601.2
428.848	601.2
429.235	613.4
429.644	597
430.053	603.4
430.461	610.8
430.87	622
431.279	616.4
431.666	609.2
432.075	617
432.484	636
432.893	627.4
433.302	649.8
433.711	672.6
434.099	656.2
434.508	654.4
434.918	653.2
435.327	675.8
435.737	675.6
436.125	682.8
436.534	688
436.944	694.6
437.353	720.4
437.763	721.2
438.173	710
438.561	726.4
438.971	713.6
439.381	728.4
439.791	751.4
440.201	743.8
440.589	760.2
440.999	772
441.409	762
441.819	768
442.23	785
442.619	791.6
443.029	778.6
443.439	798.8
443.85	810.8
444.26	819.8
444.649	809.4
445.06	815
445.471	798.8
445.881	818.6
446.292	833.6
446.682	836
447.092	815.2
447.503	878.6
447.914	831.8
448.325	838.8
448.715	837.2
449.126	829.2
449.537	839.6
449.948	844.6
450.338	836.4
450.75	850.6
451.161	834.8
451.572	854
451.984	847.4
452.374	824.2
452.786	842.2
453.197	850.2
453.609	853
453.999	843.8
454.411	855.6
454.823	866.8
455.235	863.4
455.647	861.8
456.037	858.4
456.449	845.8
456.862	859
457.274	860.4
457.665	854
458.077	870
458.489	882.2
458.902	859.6
459.293	864
459.705	860.6
460.118	854
460.53	863.4
460.921	865.4
461.334	858.8
461.747	864.6
462.16	872.4
462.551	871
462.964	865.4
463.377	861.2
463.79	860.2
464.182	883.8
464.595	862.4
465.008	868.8
465.421	870.6
465.813	873.2
466.226	872
466.64	862
467.053	910
467.445	867
467.859	873
468.272	858.8
468.686	878.2
469.078	867.4
469.492	856.6
469.906	873
470.298	874
470.712	865.4
471.126	918.8
471.54	855
471.933	856.4
472.347	868.2
472.761	862.2
473.175	845.4
473.568	863.8
473.982	855.6
474.397	866
474.79	859.6
475.204	870.6
475.619	855.6
476.033	857.8
476.426	849.6
476.841	843
477.256	868.8
477.649	844
478.064	834.4
478.479	829.8
478.872	834.4
479.287	828.6
479.702	838
480.118	839
480.511	834.6
480.927	837.2
481.342	837.2
481.736	841.6
482.151	841.8
482.566	839.2
482.96	840.4
483.376	834.6
483.792	821.6
484.186	831.4
484.602	825
485.017	831.6
485.412	832.6
485.827	839
486.243	831.8
486.638	844
487.054	823.6
487.47	830.8
487.865	810.4
488.281	824.4
488.697	814.6
489.092	814
489.508	802.4
489.925	826
490.32	800.6
490.736	805
491.153	808.8
491.548	803.4
491.964	808.4
492.381	785.8
492.776	804.4
493.193	793.4
493.61	801.4
494.006	795.2
494.422	791.6
494.84	772.8
495.235	790.2
495.652	799.4
496.069	788
496.465	780
496.883	781.8
497.3	805.6
497.696	770.4
498.113	783
498.509	764
498.927	761.2
499.344	763.2
499.741	755
500.158	772.4
500.576	780.8
500.973	767
501.39	758.4
501.787	753.8
502.205	767.8
502.623	758.6
503.02	754.2
503.438	750.4
503.856	751.4
504.253	751
504.671	754.4
505.068	747.8
505.486	745.6
505.905	764.6
506.302	746.8
506.72	755.6
507.118	730.2
507.536	736
507.955	738.6
508.352	741
508.771	733.2
509.169	735.8
509.587	722.6
510.006	719.4
510.404	719
510.823	716.8
511.221	728.8
511.64	722.4
512.038	732.6
512.457	715.2
512.877	719.4
513.275	712.6
513.694	729.6
514.092	698.4
514.512	712.8
514.91	710.4
515.33	706.4
515.749	714.4
516.148	712.6
516.568	718.2
516.966	705.8
517.386	707.2
517.785	716.4
518.205	694.6
518.603	696
519.024	701.8
519.444	705.2
519.843	694
520.263	704
520.662	697.6
521.082	690.2
521.481	688.4
521.902	698.4
522.301	698
522.722	698.2
523.121	688
523.542	689.2
523.963	681
524.362	682.8
524.783	685
525.183	679.4
525.604	679.6
526.003	672.4
526.425	675.8
526.824	676.6
527.246	678
527.646	683.2
528.067	678.4
528.467	676
528.888	678.2
529.289	679.8
529.71	666.8
530.11	662.6
530.532	660.2
530.932	655.8
531.354	653.8
531.755	688.8
532.176	672.6
532.577	663.6
532.999	659.8
533.4	658
533.822	666
534.223	672
534.645	653.2
535.046	647.2
535.468	655.8
535.869	666.6
536.292	651.6
536.693	673.4
537.115	658.2
537.516	654.8
537.939	649.2
538.34	658.2
538.742	663.2
539.165	664
539.566	649.8
539.989	648.8
540.391	654.4
540.814	649.6
541.216	642.8
541.639	652
542.041	654.4
542.464	633.8
542.866	648
543.268	637.8
543.691	643.6
544.093	637.8
544.517	660.6
544.919	628.8
545.343	661.8
545.745	640.2
546.147	635.4
546.571	634.6
546.974	627.4
547.398	638.4
547.8	640.4
548.224	629.8
548.627	627
549.03	634.8
549.454	625.2
549.857	626.4
550.281	624
550.684	628.6
551.087	645.6
551.512	631.2
551.915	630.2
552.34	627.2
552.743	620.8
553.146	635.6
553.571	628
553.975	642.2
554.399	620.4
554.803	670
555.207	615.6
555.632	611.2
556.036	623.2
556.461	612.6
556.865	621.2
557.268	612.4
557.694	612
558.098	619.4
558.502	621.2
558.927	621.4
559.332	626
559.736	619.4
560.162	619.6
560.566	613.2
560.992	618.2
561.396	617.6
561.801	607.2
562.227	616.8
562.631	617.8
563.036	614.2
563.462	622.2
563.867	611.6
564.272	598.6
564.698	614.4
565.103	611
565.508	627.6
565.935	609.4
566.34	610.4
566.745	622.8
567.172	609.6
567.577	626
567.982	633.6
568.409	611.8
568.815	612.6
569.22	613.2
569.626	615
570.053	598.2
570.459	609.8
570.865	610
571.292	615.4
571.698	602.2
572.104	592
572.531	596.2
572.937	613.6
573.343	604
573.75	609.2
574.177	599.8
574.583	606.4
574.99	600.4
575.396	621.6
575.824	595.6
576.231	607.8
576.637	598.6
577.065	623.8
577.472	602.2
577.879	592.6
578.286	612
578.714	589.6
579.121	603.8
579.528	600
579.935	605.2
580.364	585
580.771	594
581.178	593.8
581.585	598.8
582.014	600
582.421	592.6
582.829	588.6
583.236	608.8
583.644	594.8
584.073	597.6
584.481	594.2
584.889	596.4
585.296	604.6
585.726	590.2
586.134	584
586.542	584.6
586.95	600
587.358	580.6
587.787	593.2
588.196	604.6
588.604	594.8
589.012	591.8
589.421	588.6
589.851	577
590.259	589.4
590.668	585
591.076	619.6
591.485	583.2
591.894	585.4
592.324	598.8
592.733	599
593.142	574.6
593.551	587
593.96	610.6
594.369	586.2
594.8	574.2
595.209	591.2
595.618	571.4
596.028	587.8
596.437	581
596.847	587.6
597.256	581
597.687	586.6
598.097	581.4
598.507	579.6
598.917	587.8
599.327	591
599.736	586.8
600.146	597
600.556	589.8
600.988	598.6
601.398	594
601.808	602.6
602.219	578
602.629	590.6
603.039	592
603.45	609.2
603.86	589.4
604.271	592.6
604.703	581.8
605.114	589.6
605.525	580.8
605.935	592.4
606.346	598.2
606.757	592.6
607.168	585.8
607.579	581.8
607.99	593.2
608.402	590.6
608.813	589.8
609.224	589.8
609.636	581.8
610.047	579.4
610.48	592.8
610.892	596
611.303	599.6
611.715	598.2
612.127	581.8
612.539	585
612.95	591.6
613.362	589.8
613.774	592.2
614.186	597.4
614.599	591.8
615.011	600.2
615.423	596.4
615.835	586.4
616.248	592.2
616.66	599.4
617.073	588.6
617.485	595.4
617.898	604
618.311	598.6
618.723	603.8
619.136	621.4
619.549	612.2
619.962	617.4
620.375	599.4
620.788	602.4
621.201	600.6
621.614	611
622.028	604.8
622.441	600.8
622.854	617.4
623.268	602.8
623.681	603.2
624.095	604.4
624.509	610.4
624.922	611.6
625.336	590.2
625.728	606.4
626.142	608.6
626.556	620
626.97	614.2
627.384	603
627.799	607
628.213	610.2
628.627	602.8
629.041	602.8
629.456	598.8
629.87	606.6
630.285	610
630.699	612.8
631.093	603
631.507	611.8
631.922	606
632.337	623.2
632.752	607.8
633.167	607.6
633.582	594.2
633.997	609.4
634.412	595.6
634.806	603.2
635.221	598.4
635.637	603.6
636.052	593.4
636.468	609.8
636.883	620.2
637.299	600
637.715	588.6
638.109	599
638.525	584.8
638.941	617.6
639.357	600.6
639.773	610.8
640.189	598.6
640.584	595.6
641	601
641.416	593.4
641.832	596.8
642.249	597.4
642.665	593.8
643.06	602.4
643.477	597.2
643.894	582.8
644.31	585.4
644.727	586.2
645.123	587.6
645.54	590.2
645.957	589.2
646.374	599.8
646.77	591
647.187	609.6
647.604	593.4
648.021	574.2
648.439	586
648.835	592.8
649.252	589.8
649.67	591.6
650.088	588.4
650.484	583.4
650.902	597
651.32	586.6
651.738	583.4
652.134	589.4
652.552	606.8
652.971	595.8
653.389	588.4
653.786	591
654.204	604.4
654.622	575
655.019	585.2
655.438	583.2
655.857	581.2
656.275	581.4
656.673	576.8
657.091	598.8
657.51	578.8
657.908	585.6
658.327	603.8
658.746	581.2
659.144	586.8
659.563	600.6
659.982	584.2
660.38	569.8
660.8	582.2
661.219	594.2
661.617	588.8
662.037	578.6
662.457	588
662.855	576.4
663.275	610.6
663.695	577.6
664.094	586
664.514	574.2
664.934	570.2
665.333	595.4
665.753	577.2
666.152	573.2
666.572	572
666.993	585.4
667.392	574.2
667.812	581.6
668.212	578.4
668.632	588
669.053	568
669.453	584.2
669.874	571.8
670.273	572.8
670.694	577.2
671.116	584.8
671.515	584.2
671.937	576.8
672.337	577.6
672.758	571.4
673.158	586
673.58	574.4
673.98	585.4
674.402	580.6
674.824	580.2
675.224	568.6
675.646	561.4
676.047	576.4
676.469	577.4
676.869	580
677.292	578
677.693	569.6
678.115	576
678.516	584.4
678.939	581.8
679.34	580
679.762	587.8
680.164	582
680.586	566.6
680.988	572.2
681.411	594
681.812	564.2
682.236	575.8
682.637	567.4
683.061	567.2
683.462	580.8
683.864	570
684.288	572.8
684.69	565.6
685.114	578.8
685.516	584
685.94	565.2
686.342	577.4
686.766	569.6
687.168	570
687.571	578.2
687.995	567.2
688.398	563.2
688.822	560.6
689.225	580.2
689.628	584.4
690.052	569.6
690.456	571.2
690.88	562.2
691.284	558.2
691.687	578.8
692.112	559.2
692.515	557.4
692.919	574
693.344	572.4
693.747	566.6
694.173	570.8
694.577	584.6
694.98	566.6
695.406	566.4
695.81	570.4
696.214	572.6
696.64	574.6
697.044	571
697.448	575.2
697.874	564.2
698.279	573.6
698.684	564
699.11	569.6
699.514	571.6
699.919	565.2
700.324	562.6
700.75	570
701.156	562.2
701.561	578.8
701.987	569.8
702.393	579
702.798	575.2
703.203	572.2
703.63	563.4
704.036	565.2
704.442	573.8
704.847	563.4
705.274	571.6
705.68	574.8
706.086	586.2
706.492	560
706.92	567.8
707.326	565.2
707.732	570.4
708.139	563.6
708.545	562.6
708.973	562.4
709.38	576
709.786	554.8
710.193	574.8
710.6	569.4
711.028	561.8
711.435	571.4
711.842	560.8
712.249	570.6
712.656	558
713.064	579.6
713.492	554
713.9	562
714.307	575.6
714.715	575.2
715.123	576
715.53	574.4
715.938	575.8
716.367	568.2
716.775	571.8
717.184	558.6
717.592	571.6
718	575.2
718.408	597.2
718.816	609.4
719.225	561.8
719.633	571.4
720.042	557.2
720.472	570.2
720.881	587.8
721.29	568.8
721.699	560.8
722.108	570.2
722.517	573.2
722.926	562.6
723.335	574
723.744	574
724.154	575
724.563	567
724.973	573.4
725.382	567.6
725.792	567.6
726.202	562.2
726.612	585.8
727.022	571
727.432	566.4
779.813	569.8
780.223	607.2
780.634	563
781.044	567.2
781.454	567.6
781.865	581.6
782.276	565.4
782.686	580.2
783.097	573.2
783.508	565.2
783.919	562
784.33	579.6
784.741	575.8
785.152	567.4
785.563	562.6
785.974	564
786.386	573.2
786.776	562.2
787.188	567.4
787.599	565.4
788.011	563.8
788.423	562
788.835	559.2
789.247	561.2
789.659	561.4
790.071	563.4
790.483	592.2
790.874	575
791.286	576.6
791.699	563.4
792.111	567
792.524	564.4
792.937	560.4
793.349	559.6
793.741	553
794.154	556.8
794.567	579.6
794.98	566.2
795.393	551.8
795.785	578.8
796.198	558.2
796.612	564.2
797.026	556.4
797.439	552.6
797.831	565
798.245	559.2
798.659	566.4
799.073	566.8
799.487	565.6
799.88	562.8
800.294	562
800.708	563.4
801.123	563.6
801.516	577.4
801.93	556.6
802.345	558.6
802.76	565.8
803.153	579.2
803.568	579
803.983	573.8
804.377	562
804.792	562
805.207	554
805.601	570
806.016	592
806.432	555.6
806.826	588.6
807.242	570.2
807.658	573.2
808.052	565.8
808.468	560.6
808.884	563.6
809.279	567
809.695	587.6
810.111	584
810.506	567.6
810.922	582.6
811.339	563
811.734	567.4
812.151	569.2
812.546	566.2
812.963	568
813.38	561.2
813.776	558.6
814.193	582.6
814.589	556.8
815.006	560.4
815.402	564.4
815.82	564.8
816.237	570.6
816.633	568.6
817.051	552.2
817.448	566.8
817.866	552.6
818.262	582.4
818.68	563.6
819.077	562.4
819.495	556.6
819.892	599.6
820.311	559
820.708	560.4
821.127	563.4
821.524	570
821.943	571.8
822.34	576.8
822.759	572.2
823.157	568.4
823.576	567.8
823.974	576.6
824.393	607.8
824.791	567.8
825.189	563.4
825.609	566.2
826.007	564
826.427	562.4
826.826	561.2
827.246	567.8
827.644	554.6
828.043	572
828.463	563.6
828.862	572.2
829.261	572.2
829.682	560.2
830.081	566.4
830.502	557
830.901	570
831.301	584
831.722	554.6
832.121	563.8
832.521	557.8
832.943	569.4
833.342	561.6
833.742	560.6
834.164	559.4
834.564	554.8
834.965	560.6
835.386	553.8
835.787	558.6
836.188	557.8
836.588	558.6
837.01	553
837.411	552.6
837.812	567.2
838.213	564.6
838.636	557
839.037	623.4
839.438	564
839.84	557.6
840.263	568.6
840.664	565.6
841.066	556.8
841.468	556.6
841.891	567.2
842.293	570.6
842.695	562.2
843.098	561.8
843.5	566.2
843.902	565.6
844.326	567.4
844.729	573.2
845.131	574.2
845.534	565.2
845.937	572
846.34	575.2
846.764	557.4
847.167	564.8
847.571	555
847.974	562
848.377	555.4
848.781	601.4
849.184	579.6
849.588	568.6
849.992	563.8
850.396	560.4
850.821	572.4
851.225	560.6
851.63	566.8
852.034	569.4
852.438	559
852.843	632.6
853.247	558.6
853.652	555.2
854.057	573.4
854.462	564
854.867	571.2
855.272	589
855.677	564.8
856.082	558.8
856.487	552
856.893	573.2
857.298	562
857.704	556.8
858.11	565.6
858.516	574
858.922	571.2
859.328	576.6
859.734	571.4
860.14	567.4
860.525	563
860.931	555
861.338	565.4
861.745	568.6
862.151	568.6
862.558	566.4
862.965	554.4
863.372	567
863.779	566
864.186	583.8
864.572	555.2
864.98	583.4
865.387	593
865.795	559.4
866.203	563.2
866.61	564.6
867.018	578.4
867.405	571.6
867.813	571.6
868.221	567
868.63	556.2
869.038	574.2
869.425	592.4
869.834	568.8
870.243	562.2
870.652	557.8
871.039	556.8
871.448	564.4
871.857	570
872.266	567.4
872.654	570.6
873.064	559
873.473	568.6
873.883	562.4
874.271	557.8
874.681	570
875.091	552.2
875.48	565.6
875.89	573.6
876.3	557.4
876.689	551.8
877.1	566.8
877.51	571.2
877.9	577.2
878.31	555.2
878.721	588.6
879.111	567.8
879.522	561.8
879.933	550.4
880.323	559.4
880.734	562
881.125	568.2
881.536	567.2
881.948	555.4
882.338	564.6
882.75	571.6
883.141	562.4
883.553	567.4
883.944	588.4
884.356	565.8
884.769	558.8
885.16	561.2
885.573	563
885.964	553.8
886.377	559
886.768	548.6
887.181	566.6
887.573	554.6
887.987	563.2
888.378	569.4
888.792	563.8
889.184	601
889.598	552.8
889.99	564.6
890.383	550.8
890.797	550.4
891.19	566.8
891.604	552.8
891.997	552.4
892.411	552.2
892.805	551.4
893.198	557.8
893.613	545
894.006	565.2
894.421	554.6
894.815	554.6
895.209	552.2
895.624	594
896.018	576.2
896.412	559
896.828	559.6
897.222	565.6
897.617	560
898.033	576.8
898.427	567.4
898.822	561.4
899.239	551.8
899.634	551.4
900.029	575.2
900.424	559
900.841	556
901.236	567.8
901.632	567.6
902.027	610
902.445	573
902.841	560.4
903.237	563.2
903.633	576.4
904.05	570.2
904.447	573.8
904.843	562.2
905.24	562.2
905.636	552
906.033	562
906.451	567.2
906.848	556.8
907.246	568.2
907.643	565.2
908.04	568.6
908.438	574.4
908.835	571.2
909.254	566.4
909.652	569.4
910.05	562
910.448	552.2
910.846	565.6
911.244	554.6
911.643	551.6
912.041	562.2
912.44	578.2
912.839	557.8
913.237	564.6
913.636	555.8
914.035	572.4
914.434	564.8
914.834	575.4
915.233	571.2
915.633	556.4
916.032	559.2
916.432	549.6
916.832	564.6
917.232	556.6
917.632	554
918.032	567.8
918.432	563.4
918.833	563.8
919.233	557.6
919.634	550.4
920.035	571.4
920.436	556.6
920.837	565.2
921.238	557.6
921.639	550.6
922.019	563.4
922.42	558.8
922.822	570.4
923.224	557.8
923.625	554.6
924.027	559
924.429	584.6
924.81	565.4
925.212	565.6
925.615	558
926.017	563.8
926.42	574.8
926.801	557.6
927.204	568
927.607	568.2
928.01	576
928.413	563.6
928.795	544.2
929.199	551.8
929.602	557.2
930.006	557.8
930.388	557
930.792	558
931.196	560.2
931.579	589.6
931.983	553.2
932.388	596.6
932.771	552.6
933.176	548.4
933.58	554.6
933.964	558.4
934.369	547.6
934.774	561
935.158	552.4
935.563	564.2
935.947	563.4
936.353	565.4
936.759	550.6
937.143	566
937.549	555.6
937.934	567.2
938.34	579.4
938.746	551.2
939.131	559.8
939.538	557
939.923	559
940.33	555.2
940.716	563.2
941.123	572.4
941.508	569.4
941.916	578.2
942.302	567
942.709	556.8
943.096	553.4
943.503	560.6
943.89	558
944.298	556.4
944.685	578.4
945.072	542.2
945.48	565.4
945.867	553.8
946.276	549.6
946.663	575
947.051	570.2
947.46	563
947.848	563.8
948.257	555.4
948.645	553.6
949.033	562.6
949.443	552
949.831	593.2
950.22	553.6
950.63	563.4
951.018	590.4
951.407	558.6
951.796	555.6
952.207	561.8
952.596	561.2
952.985	553.4
953.375	585.6
953.786	559
954.176	553.4
954.566	562.8
954.956	554.8
955.367	562
955.758	582.2
956.148	553.4
956.539	573
956.929	551.2
957.341	554
957.732	566.2
958.123	575.4
958.515	556.4
958.906	565.2
959.297	556.2
959.689	561.4
960.102	547.8
960.494	564.8
960.886	558.8
961.278	556
961.67	577.4
962.062	590.8
962.455	557.2
962.847	555.2
963.24	554.2
963.633	559.8
964.026	550.8
964.419	562.4
964.812	559
965.206	556.8
965.599	572
965.993	560.4
966.386	557
966.78	569.8
967.174	562.4
967.569	553
967.963	560.4
968.357	549.8
968.752	550.6
969.146	556.6
969.541	553.2
969.936	557.2
970.331	559
970.705	555.8
971.1	561.6
971.496	560
971.892	551.4
972.287	557
972.683	563.4
973.079	554.8
973.454	563
973.85	563.2
974.247	558
974.643	581.4
975.04	558.6
975.415	550.4
975.812	554.4
976.209	563.4
976.607	551.4
976.982	560.6
977.38	569.4
977.778	562.4
978.175	558.6
978.552	553.2
978.95	559
979.348	558.8
979.725	595.8
980.123	547.6
980.522	559.8
980.899	547.6
981.298	550.6
981.697	557.2
982.075	549.2
982.474	551.2
982.852	550.2
983.251	557
983.651	553
984.029	554.2
984.429	556
984.808	545
985.208	543.6
985.609	548.6
985.987	556.8
986.388	546.4
986.768	559.8
987.168	552.6
987.548	563.6
987.949	566.6
988.329	561.6
988.731	550.6
989.111	559
989.491	553.4
989.893	556.2
990.273	561.6
990.676	557.2
991.057	546.4
991.459	549
991.84	553.2
992.221	552.6
992.624	565
993.006	565.8
993.388	565.8
993.791	563.6
994.173	561.2
994.576	586.8
994.959	552.2
995.341	558.2
995.724	563.6
996.128	553.4
996.511	568.2
996.894	562
997.298	560
997.681	565.4
998.065	565.8
998.448	557.2
998.854	563.6
999.237	552.4
999.621	569
1000.01	574.4
1000.39	559
1000.8	558
1001.18	564.8
1001.56	564.6
1001.95	562.4
1002.33	560
1002.72	564.6
1003.13	558
1003.51	563.8
1003.9	561.4
1004.28	572.4
1004.67	555.8
1005.06	553
1005.44	586
1005.83	554.4
1006.21	557.4
1006.6	558.8
1006.99	563.8
1007.37	570.4
1007.76	559
1060.12	556.8
1060.51	552.8
1060.89	560.8
1061.28	554.6
1061.67	569
1062.06	564.4
1062.45	559
1062.83	552.2
1063.22	566.2
1063.61	591.4
1064	556.8
1064.39	563
1064.78	561.8
1065.14	564
1065.53	563.4
1065.92	566.6
1066.31	558.4
1066.7	562
1067.09	567.8
1067.46	565.6
1067.85	551.4
1068.24	555.2
1068.63	565.8
1069.02	556.8
1069.39	557.6
1069.78	554.6
1070.17	550.8
1070.57	555.4
1070.93	554.2
1071.33	551.8
1071.72	562
1072.11	552.6
1072.48	546.6
1072.87	562.4
1073.26	546.4
1073.64	554.6
1074.03	540.2
1074.4	553.8
1074.79	549
1075.19	554.2
1075.56	555.8
1075.95	556
1076.34	550.2
1076.72	551
1077.11	559.2
1077.48	568.4
1077.88	558
1078.25	558.2
1078.64	567.6
1079.02	559.2
1079.41	561.6
1079.78	564.4
1080.18	557.2
1080.55	614.4
1080.95	551.2
1081.32	548.8
1081.72	559.2
1082.09	551.4
1082.49	562
1082.86	557
1083.24	553.2
1083.63	546.4
1084.01	555
1084.38	560.2
1084.78	545.4
1085.16	559
1085.55	559.2
1085.93	565.8
1086.31	545.6
1086.7	579.2
1087.08	556
1087.46	554.6
1087.83	544.8
1088.23	567.2
1088.61	557.4
1088.99	555.4
1089.36	551.4
1089.76	555
1090.14	560.8
1090.52	559.4
1090.9	553.8
1091.27	570.2
1091.67	575.6
1092.05	560.8
1092.43	552.8
1092.81	568.2
1093.19	563.2
1093.57	562.4
1093.95	552
1094.35	560.8
1094.73	559.2
1095.11	557.6
1095.49	558.8
1095.87	563.2
1096.25	574
1096.63	566.2
1097.01	563.8
1097.39	556.8
1097.77	551.8
1098.15	557.6
1098.53	559.4
1098.91	556.4
1099.29	557
1099.68	567.8
1100.06	569.2
1100.44	552.4
1100.82	559.6
1101.18	560.6
1101.56	551.2
1101.95	553.8
1102.33	559
1102.71	563
1103.1	548.6
1103.48	548.8
1103.86	549.4
1104.22	566
1104.61	555.4
1104.99	546.6
1105.38	546.4
1105.76	557.2
1106.12	554.2
1106.51	582.8
1106.89	565.2
1107.26	559.6
1107.64	564.6
1108.03	553.2
1108.41	550
1108.78	559.8
1109.16	559
1109.55	559
1109.91	545.8
1110.3	548.2
1110.69	564.8
1111.05	553
1111.44	550
1111.8	560.8
1112.19	552
1112.58	553.4
1112.94	560.2
1113.33	562.6
1113.7	554.6
1114.09	554.8
1114.45	550.6
1114.84	557.4
1115.21	565.4
1115.6	552.2
1115.96	555.6
1116.35	561
1116.72	554
1117.11	569
1117.48	553.6
1117.85	555.6
1118.24	562.4
1118.6	563.6
1118.99	552.2
1119.36	555.4
1119.73	555.2
1120.12	561.4
1120.49	548.2
1120.86	553.2
1121.25	556.8
1121.62	544.8
1121.99	543.2
1122.38	559
1122.76	545.6
1123.13	550.6
1123.5	554.6
1123.89	553.8
1124.26	535.8
1124.63	554
1125	557.8
1125.4	547.8
1125.77	546.6
1126.14	540.6
1126.51	557
1126.88	547.4
1127.26	544.4
1127.63	547.2
1128.02	552
1128.4	541.2
1128.77	554.8
1129.14	559
1129.52	554
1129.89	557.8
1130.26	548
1130.64	547.4
1131.01	557.2
