#lambda/nm	C1
208.295	538.6
208.67	487.2
209.045	443.2
209.419	442.2
209.794	605
210.169	589.4
210.544	705.4
210.919	605
211.295	600.6
211.67	607.4
212.045	603.2
212.421	605.6
212.796	641.4
213.172	599.8
213.547	603.2
213.923	606.2
214.299	599.4
214.675	603.4
215.051	608.8
215.427	621.2
215.803	622.6
216.179	610.2
216.555	598.6
216.932	610.4
217.308	605.8
217.684	608.4
218.061	607.6
218.438	606.2
218.814	594.6
219.191	611.4
219.568	603.8
219.945	595
220.322	606.8
220.699	610
221.076	601
221.453	608
221.83	595.4
222.208	595.6
222.585	601.4
222.962	610.6
223.34	603.8
223.717	603.4
224.095	600.6
224.473	608.2
224.851	595.6
225.229	588.2
225.607	618.8
225.985	597.4
226.363	610.4
226.741	607
227.119	610.2
227.497	614.2
227.876	602.6
228.254	609.6
228.633	604.2
229.011	614.8
229.39	609.6
229.769	610.2
230.148	617
230.527	618.6
230.905	602.2
231.284	605.6
231.664	606.6
232.043	624.8
232.422	616.6
232.801	601
233.181	608.4
233.56	608.2
233.94	598.8
234.319	595.8
234.699	610.8
235.079	643
235.458	634.4
235.838	619.4
236.218	590.4
236.598	594.4
236.978	604.6
237.358	595.2
237.738	604
238.119	622
238.499	589.2
238.88	610
239.26	621.4
239.641	599
240.021	600.6
240.402	604.8
240.783	595.4
241.163	603.8
241.544	612
241.925	608.2
242.306	617.8
242.687	608.6
243.069	604.4
243.45	614.8
243.831	596.2
244.212	593
244.594	629.4
244.975	618.8
245.357	610
245.739	589
246.12	606
246.502	613.2
246.884	603.8
247.266	598.2
247.648	599.8
248.03	622.4
248.412	614.2
248.794	607
249.176	604
249.559	613
249.941	599.6
250.323	597
250.706	601.2
251.089	608.6
251.471	614.8
251.854	603.8
252.237	603.6
252.62	618
253.002	605.4
253.385	606
253.769	618.4
254.152	597.2
254.535	603
254.918	595.4
255.301	599
255.685	604.8
256.068	594.2
256.452	623.8
256.835	603.6
257.219	612
257.603	616.4
257.986	603.4
258.37	604.8
258.754	596.6
259.138	610.4
259.522	609.2
259.906	600
260.29	610.8
260.675	597.6
261.059	604.2
261.443	599.8
261.828	599.6
262.212	610.2
262.597	592
262.981	596
263.366	613
263.751	604.2
264.136	596.8
264.521	600.4
264.906	597.4
265.291	616.4
265.676	600.4
266.061	611.8
266.446	615.2
266.831	598.2
267.217	620.6
267.602	598.6
267.987	607.2
268.373	604.8
268.759	609.8
269.144	613.8
269.53	606
269.916	610.4
270.302	606.4
270.688	609.2
271.074	604.4
271.46	618.6
271.846	634.8
272.232	603.4
272.618	597
273.004	607.4
273.391	621.6
273.777	612
274.164	611.8
274.55	630.6
274.937	605.8
275.324	603.2
275.71	609.2
276.097	613.6
276.484	598.8
276.871	611
277.258	617.6
277.645	592.2
278.032	608
278.419	600.2
278.807	608.6
279.194	594.8
279.581	597
279.969	612.4
280.356	603.6
280.744	609.8
281.131	624
281.519	611.4
281.907	602.4
282.295	605.2
282.682	613.6
283.07	602.6
283.458	610.6
283.846	619.2
284.235	618.8
284.623	612.4
285.011	604.8
285.399	609.2
285.788	605.4
286.176	599
286.565	618.2
286.953	596.6
287.342	615.2
287.731	596.6
288.119	603.8
288.508	606.4
288.897	607
289.286	589.8
289.675	605
290.064	613.4
290.453	604.6
290.821	602.2
291.21	622.6
291.599	604
291.989	611.2
292.378	609.6
292.768	625.8
293.157	606.4
293.547	612.2
293.936	609.2
294.326	596
294.716	611
295.106	601.6
295.496	616
295.886	615.2
296.276	606.4
296.666	602.2
297.056	601
297.446	590.2
297.836	618.2
298.227	598.8
298.617	609.8
299.008	617.6
299.398	601.4
299.789	599.6
300.179	609
300.57	621.2
300.961	608.4
301.352	602
301.742	615.2
302.133	603.4
302.524	605.2
302.915	609.8
303.307	599.2
303.698	623.4
304.089	611
304.48	604.2
304.872	618.4
305.263	605.6
305.655	597.6
306.046	614.8
306.438	611
306.829	601.6
307.221	627.2
307.613	608.4
308.005	621.2
308.397	618.2
308.789	628.2
309.181	632.4
309.573	621.8
309.965	610.6
310.357	603.2
310.749	605.4
311.142	606.4
311.534	600
311.926	611.2
312.319	599.4
312.711	601.6
313.104	623.4
313.497	601.4
313.889	649.8
314.282	616.2
314.675	633.4
315.068	605.4
315.461	615.2
315.854	634.6
316.247	613.6
316.64	604
317.033	611.2
317.405	605
317.798	606.2
318.192	608.8
318.585	598.4
318.979	605.6
319.372	597.4
319.766	605.8
320.16	622
320.553	615.6
320.947	620
321.341	608.2
321.735	600.8
322.129	591.6
322.523	627.4
322.917	593.2
323.311	610.8
323.705	606.4
324.099	606.2
324.494	614.8
324.888	610.8
325.282	598
325.677	618.6
326.071	615.6
326.466	623.2
326.861	610.4
327.255	626.4
327.65	620.8
328.045	617.6
328.44	614.4
328.835	609.4
329.23	596.4
329.625	630.8
330.02	600.2
330.415	631.6
330.81	604
331.206	608
331.601	612.2
331.996	616.2
332.37	630
332.766	601.4
333.161	629.2
333.557	605.6
333.953	603.2
334.348	941.6
334.744	611.4
335.14	603.2
335.536	610.2
335.932	616.6
336.328	606.6
336.724	618
337.12	605.8
337.516	614.8
337.913	610.8
338.309	624.2
338.705	610.6
339.102	618.4
339.498	606.6
339.895	618
340.291	598
340.688	621
341.085	598.4
341.481	603.8
341.878	608.4
342.275	620.4
342.672	600.6
343.069	605
343.466	595
343.842	620.6
344.239	598
344.636	604.8
345.033	598.6
345.431	603.4
345.828	605.4
346.225	606.4
346.623	629
347.02	605.4
347.418	612
347.816	620.4
348.213	594.8
348.611	612
349.009	601.2
349.407	616.4
349.805	593
350.203	592.4
350.601	615.8
350.999	596.4
351.397	642.8
351.795	598.8
352.193	612.4
352.57	610.2
352.969	614.6
353.367	588.2
353.766	596.8
354.164	599.4
354.563	608.2
354.961	599.4
355.36	598.4
355.759	599
356.158	593.2
356.557	595.2
356.956	594.6
357.355	596
357.754	605.2
358.153	611.8
358.552	623.8
358.951	598.8
359.35	608.6
359.75	594.4
360.149	584.8
360.527	580.8
360.926	595.2
361.326	600
361.726	601.6
362.125	584.8
362.525	602.2
362.925	594.8
363.325	592.8
363.724	606.4
364.124	598.8
364.524	598.4
364.924	591.6
365.324	609
365.725	583.8
366.125	604.6
366.525	605.4
366.904	599.4
367.304	587.2
367.705	614.8
368.105	613.6
368.506	605.8
368.906	598.8
369.307	596
369.708	601.8
370.108	595.2
370.509	607.2
370.91	595
371.311	602
371.712	600.2
372.113	595.6
372.514	587.2
372.894	594
373.295	594.4
373.696	607.4
374.097	606.8
374.499	626.2
374.9	596.6
375.301	595
375.703	608.4
376.105	594
376.506	600.2
376.908	592.8
377.309	599.6
377.711	592.2
378.113	590.6
378.493	596.8
378.895	596.4
379.297	607.4
379.699	585
380.102	602.2
380.504	591.2
380.906	586.4
381.308	622.2
381.71	596.4
382.113	609.2
382.515	594.2
382.918	601.6
383.299	601.2
383.701	602.8
384.104	599.6
384.507	580.6
384.909	592.8
385.312	583.8
385.715	595
386.118	599.6
386.521	585
386.924	603.4
387.327	592.8
387.709	586.8
388.112	583.2
388.515	591.6
388.918	599.2
389.322	603
389.725	592.2
390.129	621.4
390.532	607
390.936	602.6
391.339	592.2
391.743	601.8
392.125	593.8
392.529	607.6
392.933	611.8
393.337	593.2
393.74	591
394.144	602.6
394.548	590.6
394.953	593
395.357	601.8
395.761	591.8
396.144	605.8
396.548	596.8
396.952	592.2
397.357	606.6
397.761	595.8
398.166	592
398.57	600.8
398.975	582.6
399.379	598.8
399.763	642.8
400.168	596.4
400.572	597.8
400.977	590.8
401.382	611.2
401.787	602.8
402.192	609.6
402.597	610.6
403.002	586.6
403.386	608.2
403.791	612.2
404.197	595.2
404.602	602.2
405.007	600.4
405.413	592.8
405.818	591.4
406.224	589.4
406.608	596.6
407.014	582.6
407.42	611.4
407.825	595
408.231	604.2
408.637	596
409.043	620
409.449	594.6
409.834	605.6
410.24	597.6
410.646	603.4
411.052	611.6
411.458	603.2
411.865	597.4
412.271	599.4
412.677	599.6
413.062	603.4
413.469	586
413.875	616.2
414.282	608.2
414.689	599.2
415.095	606.4
415.502	590.2
415.888	598.2
416.294	584.2
416.701	644.4
417.108	593.6
417.515	603
417.923	599
418.33	620.6
418.715	605.2
419.123	598.4
419.53	595.6
419.937	601.2
420.345	610.4
420.752	593.8
421.16	610.8
421.546	595.4
421.953	608.6
422.361	595.4
422.769	604.8
423.177	596.2
423.585	616.6
423.992	617.8
424.379	608
424.787	613.8
425.195	622.2
425.603	604
426.011	613.2
426.419	616.2
426.806	599.4
427.214	606
427.623	603.4
428.031	614.2
428.44	606.2
428.848	614.2
429.235	614.4
429.644	608.4
430.053	611.2
430.461	623.4
430.87	641.6
431.279	629.4
431.666	628
432.075	628
432.484	640.6
432.893	638
433.302	661
433.711	676.8
434.099	655.8
434.508	657.6
434.918	647.6
435.327	683
435.737	691.8
436.125	696
436.534	704.2
436.944	707.6
437.353	722.2
437.763	729.2
438.173	724.6
438.561	745.4
438.971	728.4
439.381	742.8
439.791	758.2
440.201	757.6
440.589	768.2
440.999	776
441.409	784.8
441.819	781
442.23	804.6
442.619	808.8
443.029	801.4
443.439	813.2
443.85	823.2
444.26	841.8
444.649	837.8
445.06	832.8
445.471	830.2
445.881	839.2
446.292	854
446.682	859.6
447.092	831.2
447.503	894.4
447.914	851.8
448.325	858.4
448.715	856.8
449.126	844.8
449.537	865
449.948	866.2
450.338	860.6
450.75	869.4
451.161	869.6
451.572	869.6
451.984	863
452.374	862.4
452.786	872.2
453.197	882.2
453.609	884.6
453.999	868.6
454.411	876.8
454.823	897.4
455.235	882
455.647	877.6
456.037	895.4
456.449	873
456.862	876.2
457.274	877.8
457.665	875.8
458.077	882.8
458.489	913.4
458.902	883.8
459.293	890
459.705	881.4
460.118	887
460.53	872.2
460.921	893.4
461.334	895
461.747	875.8
462.16	893
462.551	893
462.964	896
463.377	885.2
463.79	893
464.182	905.6
464.595	896.8
465.008	889.8
465.421	899.8
465.813	888.8
466.226	902.4
466.64	885
467.053	937.4
467.445	904.4
467.859	900.8
468.272	895.2
468.686	907.2
469.078	891.2
469.492	892.6
469.906	890
470.298	901.6
470.712	887.2
471.126	938.4
471.54	883
471.933	885.2
472.347	883
472.761	879
473.175	869.2
473.568	872.8
473.982	865.6
474.397	889
474.79	891.6
475.204	886.2
475.619	888.2
476.033	875.8
476.426	875
476.841	861.4
477.256	889.8
477.649	872
478.064	860.8
478.479	867
478.872	861.4
479.287	859.8
479.702	866.8
480.118	860.2
480.511	865.6
480.927	865.6
481.342	867.4
481.736	875.4
482.151	847.6
482.566	873.6
482.96	872.8
483.376	871.8
483.792	864.4
484.186	853.2
484.602	850.6
485.017	851
485.412	849
485.827	846.2
486.243	847.8
486.638	873.2
487.054	854.8
487.47	855.8
487.865	835.6
488.281	836.4
488.697	827.2
489.092	836.6
489.508	825.6
489.925	826.6
490.32	824
490.736	846.4
491.153	834.8
491.548	829.8
491.964	834.2
492.381	810.4
492.776	820.2
493.193	817
493.61	816.4
494.006	815.2
494.422	826
494.84	800.8
495.235	818.6
495.652	804.8
496.069	814
496.465	796.8
496.883	802.4
497.3	820.4
497.696	797.6
498.113	805.4
498.509	789.2
498.927	777.4
499.344	785.2
499.741	780
500.158	793.8
500.576	791.2
500.973	787.6
501.39	776.6
501.787	770.8
502.205	784.8
502.623	775.6
503.02	760.8
503.438	766.2
503.856	770
504.253	778.8
504.671	785.4
505.068	765.6
505.486	767.6
505.905	777.8
506.302	772.4
506.72	771.2
507.118	748.8
507.536	763.8
507.955	756
508.352	754.8
508.771	762.2
509.169	751.2
509.587	746
510.006	741.4
510.404	729.4
510.823	726.8
511.221	741.8
511.64	740.4
512.038	743.8
512.457	727.6
512.877	733.2
513.275	725
513.694	732.6
514.092	727.6
514.512	727.2
514.91	728
515.33	727
515.749	729.8
516.148	724.4
516.568	719
516.966	722.6
517.386	714.6
517.785	717.8
518.205	711.2
518.603	705.4
519.024	705
519.444	710.2
519.843	722.2
520.263	716.6
520.662	718.4
521.082	703.4
521.481	710.2
521.902	708.6
522.301	699.6
522.722	703.2
523.121	695
523.542	701.2
523.963	700.6
524.362	704.4
524.783	696.4
525.183	691.4
525.604	705.2
526.003	681.8
526.425	686.8
526.824	707.2
527.246	690
527.646	698.2
528.067	687.6
528.467	683.4
528.888	688.4
529.289	676.4
529.71	685.6
530.11	682.6
530.532	675
530.932	675.2
531.354	662.6
531.755	706.2
532.176	680.6
532.577	685.2
532.999	670.6
533.4	670.8
533.822	688.2
534.223	680.6
534.645	668.4
535.046	668.6
535.468	676.2
535.869	683.4
536.292	656.8
536.693	710
537.115	673
537.516	665.6
537.939	658.8
538.34	684.4
538.742	670.2
539.165	655.6
539.566	670.6
539.989	661.6
540.391	658.2
540.814	661
541.216	666.6
541.639	657.4
542.041	665.6
542.464	653.8
542.866	654.6
543.268	646
543.691	655.8
544.093	658.4
544.517	667.2
544.919	644
545.343	671.4
545.745	648
546.147	653.2
546.571	646.6
546.974	638.4
547.398	647.8
547.8	648.6
548.224	638.8
548.627	632.6
549.03	649
549.454	637.6
549.857	632.2
550.281	644.6
550.684	631.8
551.087	647.6
551.512	646
551.915	646.2
552.34	642
552.743	633.8
553.146	638.2
553.571	631.8
553.975	658.6
554.399	633.4
554.803	682.4
555.207	625.8
555.632	630.4
556.036	645.4
556.461	628.6
556.865	632.4
557.268	632.4
557.694	630
558.098	633
558.502	628.2
558.927	624.4
559.332	629.8
559.736	629.8
560.162	629.4
560.566	631.2
560.992	639.2
561.396	620.4
561.801	626.4
562.227	629.8
562.631	626.2
563.036	623.4
563.462	633.6
563.867	629.4
564.272	614.8
564.698	633.2
565.103	615.6
565.508	643.2
565.935	619.4
566.34	626.4
566.745	631.6
567.172	620.2
567.577	638.8
567.982	643
568.409	620.4
568.815	610.8
569.22	623.4
569.626	625.2
570.053	607.6
570.459	612
570.865	621
571.292	619.2
571.698	623
572.104	605
572.531	623.6
572.937	619.8
573.343	625.4
573.75	612.6
574.177	610.4
574.583	625.8
574.99	610.6
575.396	618.4
575.824	612
576.231	622.2
576.637	605.4
577.065	634.6
577.472	607.8
577.879	605.8
578.286	625.8
578.714	605.6
579.121	603.4
579.528	610.6
579.935	621.4
580.364	608.4
580.771	594.2
581.178	604.4
581.585	613
582.014	614
582.421	600.8
582.829	612
583.236	615.6
583.644	600.6
584.073	602.6
584.481	609.8
584.889	606
585.296	616.2
585.726	608
586.134	603.2
586.542	597.4
586.95	614.8
587.358	591.4
587.787	610.8
588.196	610
588.604	600.2
589.012	602.2
589.421	596.6
589.851	593.6
590.259	607.2
590.668	604.8
591.076	630.6
591.485	589.6
591.894	604.6
592.324	616.8
592.733	615.8
593.142	595.2
593.551	597.6
593.96	637.8
594.369	587.4
594.8	583.8
595.209	600.8
595.618	587.4
596.028	591.4
596.437	581.6
596.847	594.2
597.256	597
597.687	595.4
598.097	598
598.507	582.2
598.917	595.2
599.327	594.8
599.736	608.4
600.146	600.4
600.556	594.8
600.988	598.8
601.398	581
601.808	606.8
602.219	588.2
602.629	597.8
603.039	597.6
603.45	614
603.86	595
604.271	605.6
604.703	595.6
605.114	593.8
605.525	593.4
605.935	592.2
606.346	617.2
606.757	600.4
607.168	590.8
607.579	584.6
607.99	597.2
608.402	592.6
608.813	600.8
609.224	585.8
609.636	587.2
610.047	591.4
610.48	586.8
610.892	603
611.303	598.6
611.715	586.8
612.127	584
612.539	589.2
612.95	595.8
613.362	578.4
613.774	578.4
614.186	590.4
614.599	585.6
615.011	598.4
615.423	588
615.835	585
616.248	579.4
616.66	601.4
617.073	588.4
617.485	587.8
617.898	593.8
618.311	602.6
618.723	590.4
619.136	614.6
619.549	596
619.962	622.2
620.375	593.6
620.788	592.4
621.201	585.8
621.614	597.2
622.028	583.2
622.441	593
622.854	602.6
623.268	582.2
623.681	603
624.095	589.6
624.509	597.2
624.922	589.8
625.336	585
625.728	592.4
626.142	598.6
626.556	602.4
626.97	592.8
627.384	583
627.799	585
628.213	595.4
628.627	586
629.041	579.6
629.456	586
629.87	588.2
630.285	591.8
630.699	598.8
631.093	587.6
631.507	588.2
631.922	591.2
632.337	600.6
632.752	580.4
633.167	580.2
633.582	576.6
633.997	587
634.412	587.6
634.806	591.2
635.221	570
635.637	597.6
636.052	577.4
636.468	587.4
636.883	602.8
637.299	584
637.715	582.6
638.109	584.8
638.525	583.4
638.941	596.6
639.357	585
639.773	598.2
640.189	583.6
640.584	579.4
641	583.2
641.416	575.6
641.832	584.2
642.249	584.4
642.665	585
643.06	590
643.477	591
643.894	572.4
644.31	575.2
644.727	582
645.123	585.6
645.54	582.6
645.957	585.6
646.374	589
646.77	591.4
647.187	608.2
647.604	587.2
648.021	565
648.439	575.6
648.835	582.8
649.252	586
649.67	579.8
650.088	588.8
650.484	586.6
650.902	594.4
651.32	589.2
651.738	571.2
652.134	581.4
652.552	599.2
652.971	582.8
653.389	581.2
653.786	596.6
654.204	600.8
654.622	582.4
655.019	579.8
655.438	585
655.857	585.2
656.275	589.6
656.673	583.4
657.091	579
657.51	581.2
657.908	592.6
658.327	590.2
658.746	576.4
659.144	583.6
659.563	587.8
659.982	583
660.38	577.8
660.8	577
661.219	591.6
661.617	588.2
662.037	586.8
662.457	591.4
662.855	567.4
663.275	610.4
663.695	581.4
664.094	585.8
664.514	582.6
664.934	579.6
665.333	588
665.753	585.4
666.152	574.6
666.572	578.8
666.993	588.4
667.392	581.2
667.812	580
668.212	570.4
668.632	590.8
669.053	580.8
669.453	590
669.874	586.2
670.273	578.6
670.694	570.4
671.116	594.2
671.515	589.6
671.937	582.4
672.337	581
672.758	574.2
673.158	589
673.58	578.2
673.98	587.2
674.402	589.8
674.824	583.6
675.224	573.2
675.646	578
676.047	580.6
676.469	586.2
676.869	584.4
677.292	585.2
677.693	574.6
678.115	574.2
678.516	585.4
678.939	582
679.34	582
679.762	590
680.164	584
680.586	574.8
680.988	585.6
681.411	603.6
681.812	578
682.236	581.6
682.637	569.6
683.061	574.8
683.462	583.6
683.864	577.6
684.288	589.2
684.69	573.8
685.114	591.2
685.516	592.2
685.94	580.6
686.342	592.4
686.766	575.2
687.168	567.2
687.571	593.8
687.995	579.4
688.398	573.4
688.822	581.4
689.225	587.8
689.628	600.4
690.052	589.6
690.456	582
690.88	579
691.284	577.6
691.687	583.4
692.112	577.4
692.515	570.4
692.919	587.6
693.344	583.6
693.747	580.4
694.173	572.8
694.577	587
694.98	578
695.406	581.4
695.81	581
696.214	584.8
696.64	579.6
697.044	583
697.448	590.2
697.874	576
698.279	577.8
698.684	576
699.11	571.4
699.514	574.2
699.919	570.8
700.324	573.2
700.75	578.2
701.156	582
701.561	594.4
701.987	583.6
702.393	585.8
702.798	589
703.203	584.8
703.63	577.6
704.036	571
704.442	576.4
704.847	570.6
705.274	572
705.68	578.4
706.086	587.4
706.492	568
706.92	576.2
707.326	583.6
707.732	573.6
708.139	567.6
708.545	564
708.973	581.8
709.38	581.8
709.786	568.6
710.193	592.6
710.6	577
711.028	570.4
711.435	578.2
711.842	580.4
712.249	578
712.656	583.2
713.064	591.4
713.492	578.2
713.9	574.4
714.307	581.2
714.715	578
715.123	580
715.53	580.8
715.938	582.2
716.367	585.6
716.775	583.2
717.184	573.8
717.592	576.8
718	588
718.408	609.8
718.816	617
719.225	580.2
719.633	583.6
720.042	569.8
720.472	574.6
720.881	601.4
721.29	580.2
721.699	571.6
722.108	578
722.517	577.2
722.926	579.2
723.335	582.4
723.744	575.2
724.154	579.2
724.563	577.6
724.973	576.8
725.382	577.8
725.792	580.6
726.202	569.4
726.612	591.2
727.022	580.8
727.432	577
779.813	572.8
780.223	626.6
780.634	576
781.044	580.6
781.454	577.6
781.865	591.4
782.276	562.8
782.686	581.8
783.097	571
783.508	577
783.919	582.4
784.33	591.8
784.741	589.6
785.152	567.4
785.563	565.2
785.974	568.4
786.386	582.4
786.776	572.6
787.188	578
787.599	573.2
788.011	585
788.423	581.2
788.835	575.8
789.247	572
789.659	569.4
790.071	572.2
790.483	613.2
790.874	577.2
791.286	578.2
791.699	572.8
792.111	573.2
792.524	570.4
792.937	569.8
793.349	571.2
793.741	566.8
794.154	571.2
794.567	594
794.98	571
795.393	564.4
795.785	589
796.198	569
796.612	571.2
797.026	574.4
797.439	569.4
797.831	567.6
798.245	567.8
798.659	569.8
799.073	568.2
799.487	562.8
799.88	576.8
800.294	570
800.708	580
801.123	578.2
801.516	585
801.93	566
802.345	564.4
802.76	575.6
803.153	583.2
803.568	578.8
803.983	579
804.377	584
804.792	566.6
805.207	566.8
805.601	576.6
806.016	604
806.432	565
806.826	604.4
807.242	585
807.658	580.8
808.052	569
808.468	577
808.884	574.4
809.279	575.6
809.695	580.6
810.111	601
810.506	577.2
810.922	593.4
811.339	578
811.734	586
812.151	580
812.546	579.8
812.963	575.6
813.38	588.8
813.776	579.6
814.193	598.4
814.589	572.8
815.006	578.6
815.402	570.8
815.82	576.2
816.237	584.6
816.633	581.4
817.051	575.8
817.448	574.8
817.866	568.2
818.262	594
818.68	573.4
819.077	575.6
819.495	580.4
819.892	608.4
820.311	572.2
820.708	579.2
821.127	571.2
821.524	579.4
821.943	575.8
822.34	592.4
822.759	578
823.157	574.6
823.576	590
823.974	581
824.393	628
824.791	573
825.189	573.4
825.609	571.8
826.007	566.2
826.427	562.4
826.826	572.4
827.246	577.8
827.644	561
828.043	584.6
828.463	567.6
828.862	574
829.261	583.8
829.682	564.8
830.081	584.8
830.502	575.4
830.901	584.8
831.301	592
831.722	571.4
832.121	580.2
832.521	568
832.943	572.2
833.342	578.8
833.742	565.8
834.164	573.6
834.564	560
834.965	567.8
835.386	567.4
835.787	570.2
836.188	570.8
836.588	584.6
837.01	575.2
837.411	568.6
837.812	583
838.213	584.6
838.636	573.6
839.037	634.2
839.438	572.4
839.84	573.4
840.263	576.2
840.664	570.6
841.066	568.8
841.468	574.6
841.891	571.2
842.293	585
842.695	577.8
843.098	574.4
843.5	572.6
843.902	572.6
844.326	572.8
844.729	577.8
845.131	590.2
845.534	573
845.937	586
846.34	583.2
846.764	571.2
847.167	574.4
847.571	567.6
847.974	575.8
848.377	571.2
848.781	614.4
849.184	581.4
849.588	572.8
849.992	566.8
850.396	572.4
850.821	586.4
851.225	581.2
851.63	560.4
852.034	583.6
852.438	571.8
852.843	593.8
853.247	566.2
853.652	574
854.057	594.2
854.462	576
854.867	573.4
855.272	595.4
855.677	574
856.082	566.2
856.487	567.8
856.893	569.4
857.298	570.2
857.704	571.4
858.11	570.6
858.516	575.6
858.922	570.6
859.328	578.6
859.734	576.2
860.14	581.6
860.525	577.4
860.931	558.8
861.338	564.4
861.745	578.2
862.151	578
862.558	576
862.965	573.8
863.372	568.8
863.779	572.4
864.186	589
864.572	573
864.98	590.8
865.387	605.2
865.795	558.2
866.203	576
866.61	571.6
867.018	583.8
867.405	575.2
867.813	573.4
868.221	565.6
868.63	567.6
869.038	584.4
869.425	607.8
869.834	578.4
870.243	569.4
870.652	558.8
871.039	558.6
871.448	571.6
871.857	578.6
872.266	578
872.654	573.2
873.064	575.8
873.473	583.8
873.883	572
874.271	573.6
874.681	581.4
875.091	558.6
875.48	577.6
875.89	585.4
876.3	568.8
876.689	562.6
877.1	573.6
877.51	576
877.9	594.8
878.31	576.4
878.721	608.4
879.111	571.8
879.522	569.2
879.933	562.8
880.323	567.8
880.734	564
881.125	582.6
881.536	562
881.948	573
882.338	573.4
882.75	575.4
883.141	576.2
883.553	577.6
883.944	600.2
884.356	582.6
884.769	573.2
885.16	572
885.573	570.4
885.964	560
886.377	567.8
886.768	562.4
887.181	568.2
887.573	560.8
887.987	574.2
888.378	577.6
888.792	572.6
889.184	616.4
889.598	560.8
889.99	572.8
890.383	566.2
890.797	555
891.19	584.6
891.604	560.4
891.997	559.2
892.411	553.2
892.805	557.2
893.198	567.2
893.613	558.2
894.006	572.6
894.421	559.4
894.815	576.4
895.209	565
895.624	612.6
896.018	586.8
896.412	567.6
896.828	570
897.222	573.8
897.617	567.8
898.033	591
898.427	578.2
898.822	567
899.239	564.8
899.634	565.2
900.029	579.2
900.424	565.2
900.841	563.4
901.236	581.6
901.632	577
902.027	624.2
902.445	577.4
902.841	564.6
903.237	571.6
903.633	592.2
904.05	585.6
904.447	573
904.843	586.8
905.24	574.4
905.636	573.4
906.033	576.8
906.451	582.8
906.848	560.2
907.246	572.8
907.643	571.4
908.04	578.8
908.438	586
908.835	576.8
909.254	573.8
909.652	573.2
910.05	568.2
910.448	565.4
910.846	578.2
911.244	561.2
911.643	575.8
912.041	578
912.44	584.8
912.839	574
913.237	577.8
913.636	567.8
914.035	578.8
914.434	566
914.834	585.4
915.233	582.4
915.633	573.8
916.032	566.8
916.432	564.2
916.832	587.6
917.232	565.8
917.632	554.4
918.032	578.2
918.432	567
918.833	573.2
919.233	567.4
919.634	569
920.035	574.6
920.436	573
920.837	570.8
921.238	560.6
921.639	564.4
922.019	574.6
922.42	578.6
922.822	579
923.224	568.8
923.625	566.6
924.027	576.4
924.429	590
924.81	571.4
925.212	579.6
925.615	573.8
926.017	569.8
926.42	586.2
926.801	570.6
927.204	569.2
927.607	577.2
928.01	588
928.413	576.6
928.795	564.6
929.199	569.8
929.602	570.8
930.006	569.6
930.388	564.2
930.792	570
931.196	575
931.579	607.8
931.983	571.4
932.388	613.4
932.771	562.2
933.176	566
933.58	572.6
933.964	571.4
934.369	556.2
934.774	568.8
935.158	569.8
935.563	569
935.947	567.2
936.353	578.6
936.759	573.8
937.143	578.2
937.549	568.4
937.934	577
938.34	588.6
938.746	561.8
939.131	561.8
939.538	561.2
939.923	573.8
940.33	571.6
940.716	565
941.123	571.6
941.508	581.4
941.916	583.4
942.302	569.8
942.709	551.8
943.096	557
943.503	566.2
943.89	570.2
944.298	566.6
944.685	586.2
945.072	561.4
945.48	580.2
945.867	564.6
946.276	559.4
946.663	591.6
947.051	583.2
947.46	577.4
947.848	569
948.257	572.6
948.645	571.2
949.033	569.2
949.443	560.8
949.831	607.2
950.22	561.2
950.63	570.4
951.018	599.2
951.407	574.8
951.796	560.6
952.207	575
952.596	576
952.985	563.8
953.375	608.4
953.786	567.2
954.176	567.8
954.566	577.6
954.956	556
955.367	569.4
955.758	586.6
956.148	554
956.539	582
956.929	564
957.341	564.4
957.732	560.6
958.123	579
958.515	556
958.906	568
959.297	570.6
959.689	560.8
960.102	559.4
960.494	571.6
960.886	569
961.278	567
961.67	592.2
962.062	597
962.455	563.4
962.847	567
963.24	566.6
963.633	571.2
964.026	563.2
964.419	569.6
964.812	580.2
965.206	560.2
965.599	572.8
965.993	578.2
966.386	566.8
966.78	573
967.174	577.4
967.569	564.8
967.963	559
968.357	563.4
968.752	560
969.146	565.2
969.541	562
969.936	561.8
970.331	576.4
970.705	575
971.1	567
971.496	570.2
971.892	564.2
972.287	569
972.683	571.2
973.079	569
973.454	575.6
973.85	563.4
974.247	574.6
974.643	595.2
975.04	566.4
975.415	577.8
975.812	557.6
976.209	574
976.607	569.8
976.982	579.2
977.38	588.4
977.778	572.2
978.175	562.4
978.552	566.6
978.95	576.2
979.348	566.6
979.725	612.8
980.123	561.4
980.522	563.6
980.899	561.4
981.298	556.6
981.697	568
982.075	566.8
982.474	549.8
982.852	567
983.251	560.4
983.651	555.6
984.029	568.8
984.429	562.8
984.808	551.4
985.208	566.8
985.609	557.2
985.987	560.2
986.388	562.8
986.768	559.8
987.168	558.8
987.548	563.6
987.949	576.8
988.329	567.6
988.731	558.6
989.111	564
989.491	566.2
989.893	565.2
990.273	574.8
990.676	557.2
991.057	563
991.459	559.4
991.84	567.4
992.221	559.2
992.624	581.8
993.006	571.8
993.388	565.4
993.791	577.4
994.173	569.8
994.576	600.2
994.959	555.8
995.341	563.6
995.724	569.6
996.128	565
996.511	577.4
996.894	568.6
997.298	562.4
997.681	574.8
998.065	566
998.448	570.4
998.854	582.2
999.237	559.6
999.621	577.4
1000.01	582.2
1000.39	568.2
1000.8	560.6
1001.18	581.6
1001.56	574.8
1001.95	573.6
1002.33	572.2
1002.72	562.4
1003.13	570.6
1003.51	560.8
1003.9	568.2
1004.28	582.8
1004.67	562.6
1005.06	576.8
1005.44	593.4
1005.83	561
1006.21	571.2
1006.6	559.6
1006.99	579.6
1007.37	574.6
1007.76	573.4
1060.12	573.4
1060.51	559.4
1060.89	580.4
1061.28	575.4
1061.67	582.8
1062.06	564.8
1062.45	572
1062.83	562.2
1063.22	579.4
1063.61	606.8
1064	572.6
1064.39	568.4
1064.78	572.4
1065.14	577.2
1065.53	565.4
1065.92	568.8
1066.31	569.4
1066.7	577.6
1067.09	579.8
1067.46	578.6
1067.85	572.6
1068.24	560.8
1068.63	572.2
1069.02	569.6
1069.39	572.6
1069.78	567.6
1070.17	564.2
1070.57	559.8
1070.93	577.6
1071.33	560
1071.72	571.2
1072.11	562.4
1072.48	564.4
1072.87	567.2
1073.26	561.2
1073.64	560
1074.03	557.2
1074.4	564.8
1074.79	561
1075.19	573.4
1075.56	569.8
1075.95	569.6
1076.34	556
1076.72	558.4
1077.11	574
1077.48	579.2
1077.88	571
1078.25	560
1078.64	584.4
1079.02	563.8
1079.41	575.6
1079.78	561.8
1080.18	562.8
1080.55	628
1080.95	562.6
1081.32	561.2
1081.72	563
1082.09	570
1082.49	563.4
1082.86	568.6
1083.24	565.6
1083.63	559.6
1084.01	573
1084.38	566.8
1084.78	560.4
1085.16	571.6
1085.55	578.2
1085.93	576.2
1086.31	554.4
1086.7	592.4
1087.08	568.8
1087.46	563.6
1087.83	554
1088.23	574.8
1088.61	566.2
1088.99	574.8
1089.36	561.2
1089.76	564.6
1090.14	566.6
1090.52	568.8
1090.9	562
1091.27	572
1091.67	591.6
1092.05	572.6
1092.43	570
1092.81	576.8
1093.19	580.8
1093.57	560.2
1093.95	562.2
1094.35	571
1094.73	566.8
1095.11	559.6
1095.49	564.8
1095.87	570.2
1096.25	581.6
1096.63	572.6
1097.01	563.2
1097.39	574.4
1097.77	572.6
1098.15	578
1098.53	558.4
1098.91	563.4
1099.29	569.6
1099.68	574.4
1100.06	575.2
1100.44	570.8
1100.82	573
1101.18	573.8
1101.56	563.8
1101.95	560.6
1102.33	568.8
1102.71	569.4
1103.1	562.2
1103.48	543.8
1103.86	560.4
1104.22	576.6
1104.61	558.4
1104.99	554.6
1105.38	552.4
1105.76	564.2
1106.12	570.6
1106.51	596.8
1106.89	577.6
1107.26	570
1107.64	576.4
1108.03	566
1108.41	569.4
1108.78	572.2
1109.16	575.6
1109.55	570
1109.91	561
1110.3	551.4
1110.69	569.6
1111.05	564.8
1111.44	555.4
1111.8	569.4
1112.19	566.6
1112.58	569.4
1112.94	562
1113.33	561.8
1113.7	557.4
1114.09	555.6
1114.45	558.8
1114.84	562.6
1115.21	572.2
1115.6	565.4
1115.96	569.6
1116.35	579.2
1116.72	567.4
1117.11	574
1117.48	560
1117.85	570.4
1118.24	577
1118.6	570.4
1118.99	558
1119.36	564
1119.73	567.6
1120.12	569.4
1120.49	559.6
1120.86	567.8
1121.25	566
1121.62	557.6
1121.99	567
1122.38	569.6
1122.76	556.8
1123.13	554.2
1123.5	565.2
1123.89	564.4
1124.26	550.8
1124.63	566.8
1125	558.8
1125.4	554.6
1125.77	560.6
1126.14	551.6
1126.51	559.2
1126.88	566.2
1127.26	554.4
1127.63	547.4
1128.02	553.8
1128.4	559
1128.77	560
1129.14	566.2
1129.52	565.8
1129.89	571.6
1130.26	556.4
1130.64	554.4
1131.01	556.2
