#lambda/nm	C1
208.295	566.4
208.67	504.2
209.045	466.8
209.419	464.2
209.794	598.8
210.169	582.6
210.544	676.6
210.919	593.4
211.295	572.8
211.67	588.8
212.045	582.2
212.421	581.8
212.796	612.8
213.172	581
213.547	577
213.923	591.2
214.299	587.4
214.675	584.6
215.051	589.4
215.427	597.4
215.803	591
216.179	593.2
216.555	580.2
216.932	593
217.308	582.2
217.684	587
218.061	596.8
218.438	586.8
218.814	582
219.191	594
219.568	582.4
219.945	583
220.322	593.4
220.699	589.6
221.076	590.8
221.453	589.6
221.83	586.8
222.208	579.6
222.585	584.4
222.962	584.6
223.34	590.6
223.717	592
224.095	583.8
224.473	584
224.851	576.2
225.229	578.6
225.607	591
225.985	577.4
226.363	586
226.741	580.4
227.119	586.6
227.497	594
227.876	575.8
228.254	586.2
228.633	586.8
229.011	588.8
229.39	586.6
229.769	580.8
230.148	587
230.527	601.8
230.905	583.4
231.284	586.6
231.664	577.8
232.043	595
232.422	597.8
232.801	588
233.181	589.4
233.56	586
233.94	582.6
234.319	572.6
234.699	584.2
235.079	618.2
235.458	617
235.838	601.4
236.218	581.6
236.598	569.8
236.978	576.6
237.358	582
237.738	575.2
238.119	591.6
238.499	575.6
238.88	584.8
239.26	601.2
239.641	575.8
240.021	581.4
240.402	587
240.783	580
241.163	583.2
241.544	581.4
241.925	583.8
242.306	593
242.687	586.8
243.069	587.6
243.45	589.6
243.831	583.6
244.212	580.2
244.594	612.6
244.975	596
245.357	588.2
245.739	576.6
246.12	591.6
246.502	591.4
246.884	585.6
247.266	582.2
247.648	582
248.03	603.2
248.412	589.2
248.794	582.4
249.176	585
249.559	587
249.941	580
250.323	579.2
250.706	579.2
251.089	586.4
251.471	583.4
251.854	590.4
252.237	581.2
252.62	593
253.002	585.2
253.385	587.2
253.769	595.6
254.152	583.8
254.535	592
254.918	585.6
255.301	585.2
255.685	579
256.068	572
256.452	602.2
256.835	595.6
257.219	593
257.603	589.8
257.986	582.2
258.37	585.8
258.754	571.8
259.138	587.2
259.522	590.2
259.906	577.4
260.29	584.2
260.675	582.8
261.059	579
261.443	569.8
261.828	591
262.212	585.8
262.597	576.8
262.981	580.2
263.366	588.6
263.751	585.6
264.136	579.4
264.521	578.6
264.906	573.4
265.291	585.6
265.676	584.6
266.061	591.4
266.446	592.6
266.831	585.4
267.217	600
267.602	586
267.987	587.6
268.373	589
268.759	598.8
269.144	599.2
269.53	587.8
269.916	584.2
270.302	582.2
270.688	589.2
271.074	589.2
271.46	592.2
271.846	604.4
272.232	580.6
272.618	584.4
273.004	585
273.391	589.4
273.777	600
274.164	594
274.55	588
274.937	570.6
275.324	584.2
275.71	583.4
276.097	593.8
276.484	572.6
276.871	588.2
277.258	582.2
277.645	563.2
278.032	579.4
278.419	576.2
278.807	584.8
279.194	579.4
279.581	579
279.969	581.8
280.356	585.2
280.744	583.2
281.131	604
281.519	585.8
281.907	584.2
282.295	580
282.682	593
283.07	582.6
283.458	584.6
283.846	591.6
284.235	597.2
284.623	585.2
285.011	577.4
285.399	579.8
285.788	584.6
286.176	579
286.565	588.4
286.953	581
287.342	575.4
287.731	570.6
288.119	578.4
288.508	577
288.897	579.6
289.286	570
289.675	580.4
290.064	584.4
290.453	578.6
290.821	588.8
291.21	587.8
291.599	573
291.989	578.8
292.378	583.6
292.768	596
293.157	583.4
293.547	587.6
293.936	582.6
294.326	581
294.716	571.2
295.106	588.2
295.496	583.4
295.886	589.8
296.276	577.8
296.666	581.6
297.056	578.4
297.446	571
297.836	594.8
298.227	582.8
298.617	587.4
299.008	594.2
299.398	580.8
299.789	581.2
300.179	584.8
300.57	590
300.961	578.2
301.352	580.2
301.742	582.6
302.133	583.4
302.524	580.2
302.915	585
303.307	578
303.698	591
304.089	583.6
304.48	578.6
304.872	584.4
305.263	580.6
305.655	583
306.046	589.4
306.438	588
306.829	578
307.221	595.4
307.613	589.8
308.005	592.8
308.397	597
308.789	600.2
309.181	602.6
309.573	596.2
309.965	586.6
310.357	577
310.749	590.4
311.142	575.2
311.534	576.4
311.926	585.2
312.319	582.6
312.711	578.2
313.104	592.2
313.497	580.4
313.889	620.2
314.282	594.2
314.675	602.6
315.068	586.8
315.461	588.2
315.854	605.8
316.247	582.8
316.64	584.8
317.033	589.4
317.405	591.8
317.798	580.6
318.192	587.4
318.585	575.4
318.979	581
319.372	576
319.766	581.6
320.16	595.8
320.553	596.6
320.947	608.4
321.341	584.4
321.735	582.8
322.129	578
322.523	603.8
322.917	574.8
323.311	586.2
323.705	586.4
324.099	590.2
324.494	596.2
324.888	593.2
325.282	587.2
325.677	596.6
326.071	596.6
326.466	601.6
326.861	591.4
327.255	600.2
327.65	598
328.045	593.8
328.44	590.2
328.835	587.2
329.23	573.4
329.625	607
330.02	586.6
330.415	606.2
330.81	587.6
331.206	588.2
331.601	579.4
331.996	591.4
332.37	599.4
332.766	576.2
333.161	605.4
333.557	584.2
333.953	587.8
334.348	874
334.744	581.2
335.14	576.2
335.536	577.4
335.932	599.2
336.328	577.8
336.724	584
337.12	587.2
337.516	588.6
337.913	581.2
338.309	595.4
338.705	581.4
339.102	587.2
339.498	584.8
339.895	592.8
340.291	580
340.688	584.8
341.085	578.6
341.481	582.8
341.878	586.8
342.275	596.2
342.672	574.8
343.069	579.4
343.466	569
343.842	594.2
344.239	576.8
344.636	583.6
345.033	575
345.431	578.6
345.828	585.8
346.225	579.6
346.623	613.4
347.02	581.4
347.418	583
347.816	590.8
348.213	581.8
348.611	584.2
349.009	583.8
349.407	589.4
349.805	567.6
350.203	577.8
350.601	585.6
350.999	581.8
351.397	642.4
351.795	578
352.193	588.2
352.57	590.6
352.969	592.8
353.367	580
353.766	575.4
354.164	584.8
354.563	593.4
354.961	581.6
355.36	575
355.759	571.2
356.158	585
356.557	574.8
356.956	573.8
357.355	575
357.754	583.2
358.153	589.2
358.552	596.2
358.951	576
359.35	588.4
359.75	579.4
360.149	583.8
360.527	570
360.926	570.4
361.326	582.4
361.726	586.4
362.125	583.4
362.525	588
362.925	579.8
363.325	579.8
363.724	581.8
364.124	575.4
364.524	564.8
364.924	575.4
365.324	590
365.725	575
366.125	578.2
366.525	578.2
366.904	581.4
367.304	566.8
367.705	597.6
368.105	595.6
368.506	576.8
368.906	571.8
369.307	586.4
369.708	576
370.108	568.8
370.509	580.6
370.91	571.6
371.311	582.2
371.712	576.6
372.113	573.6
372.514	562.6
372.894	577.2
373.295	571.2
373.696	582.8
374.097	590.2
374.499	592.4
374.9	578.8
375.301	572
375.703	584.4
376.105	571.8
376.506	580.6
376.908	577.6
377.309	581.6
377.711	581
378.113	569.4
378.493	573.4
378.895	575.8
379.297	583.2
379.699	579.8
380.102	575.6
380.504	575.6
380.906	574.8
381.308	598.6
381.71	571.8
382.113	587.8
382.515	575.4
382.918	571.2
383.299	575
383.701	582.4
384.104	573.8
384.507	558.8
384.909	571.8
385.312	560
385.715	562
386.118	570
386.521	566.6
386.924	583.2
387.327	564.2
387.709	563
388.112	553.8
388.515	565
388.918	566.8
389.322	574.4
389.725	566
390.129	599
390.532	576.6
390.936	570.2
391.339	567.4
391.743	578.2
392.125	571
392.529	577.2
392.933	591.2
393.337	569.2
393.74	580.2
394.144	580.2
394.548	571.8
394.953	569
395.357	575.2
395.761	576.6
396.144	577
396.548	576.6
396.952	578.8
397.357	565.2
397.761	563.4
398.166	568.6
398.57	573.8
398.975	563.2
399.379	573.2
399.763	622.4
400.168	573.4
400.572	575
400.977	576.6
401.382	586.8
401.787	580
402.192	588
402.597	582.2
403.002	565
403.386	585.6
403.791	585.6
404.197	570.2
404.602	576
405.007	581.8
405.413	573
405.818	575.6
406.224	571
406.608	575.4
407.014	569.4
407.42	590.6
407.825	575.4
408.231	587.6
408.637	577.2
409.043	587.6
409.449	569.6
409.834	567.4
410.24	573.6
410.646	583.2
411.052	581.2
411.458	582.8
411.865	577.4
412.271	586.6
412.677	575.2
413.062	586.2
413.469	565.4
413.875	598.4
414.282	591.4
414.689	579.6
415.095	579
415.502	574
415.888	571.6
416.294	563.6
416.701	612.6
417.108	566.6
417.515	581.4
417.923	580.6
418.33	589.2
418.715	584
419.123	565.6
419.53	574
419.937	575.6
420.345	587
420.752	574.4
421.16	590.8
421.546	581
421.953	585.6
422.361	578.4
422.769	572.6
423.177	576
423.585	596
423.992	591.2
424.379	583.8
424.787	584.2
425.195	596.4
425.603	575.8
426.011	582.4
426.419	587.4
426.806	583
427.214	581.6
427.623	588.6
428.031	597.6
428.44	589.4
428.848	592.2
429.235	601.8
429.644	589.4
430.053	584
430.461	608.2
430.87	612.8
431.279	606.4
431.666	608
432.075	605
432.484	616.4
432.893	617.8
433.302	638.6
433.711	665.2
434.099	635.6
434.508	636
434.918	647
435.327	656.4
435.737	656.6
436.125	662.2
436.534	679.6
436.944	689.6
437.353	689
437.763	706.6
438.173	700.6
438.561	721.2
438.971	697.4
439.381	716
439.791	722.4
440.201	716
440.589	744.8
440.999	751.4
441.409	762.2
441.819	747.6
442.23	767.8
442.619	768.4
443.029	767.6
443.439	780.6
443.85	788.4
444.26	797.2
444.649	791.2
445.06	789.2
445.471	794.6
445.881	791.2
446.292	810
446.682	821.4
447.092	794
447.503	842.4
447.914	803
448.325	813.2
448.715	816
449.126	807.8
449.537	814.4
449.948	825
450.338	824.8
450.75	834.4
451.161	817.2
451.572	838.6
451.984	822.8
452.374	818
452.786	832
453.197	838
453.609	844.8
453.999	814
454.411	829.6
454.823	845.6
455.235	844.2
455.647	821.6
456.037	845.2
456.449	836.2
456.862	852.8
457.274	840.6
457.665	837.2
458.077	838.2
458.489	856.6
458.902	841.8
459.293	847.6
459.705	831.4
460.118	836.8
460.53	859
460.921	853.4
461.334	848.2
461.747	840.8
462.16	857.6
462.551	851.2
462.964	844.6
463.377	831.4
463.79	852
464.182	855.8
464.595	840
465.008	842.2
465.421	844.8
465.813	839.4
466.226	854.2
466.64	848.8
467.053	882.8
467.445	851.8
467.859	859.4
468.272	855.4
468.686	848
469.078	841.4
469.492	831.6
469.906	841.2
470.298	842.6
470.712	828
471.126	868.8
471.54	828.8
471.933	831
472.347	834.6
472.761	833.4
473.175	824.8
473.568	843.6
473.982	830.4
474.397	842.2
474.79	834.6
475.204	832.2
475.619	830
476.033	840.2
476.426	832
476.841	813.2
477.256	851
477.649	826.4
478.064	817.4
478.479	815
478.872	833.6
479.287	809.4
479.702	808.6
480.118	818.4
480.511	821
480.927	820.4
481.342	814.8
481.736	819.4
482.151	801.6
482.566	812.4
482.96	813.6
483.376	809
483.792	793.4
484.186	810
484.602	798.4
485.017	806.2
485.412	793.8
485.827	797.2
486.243	799.8
486.638	812.6
487.054	798
487.47	811.8
487.865	784.4
488.281	793
488.697	794
489.092	792.4
489.508	784.6
489.925	806.4
490.32	775.6
490.736	797.6
491.153	788.4
491.548	788.8
491.964	791.4
492.381	770
492.776	776
493.193	773.2
493.61	767.2
494.006	780.6
494.422	773.2
494.84	764.8
495.235	783.2
495.652	767.6
496.069	767.6
496.465	756.6
496.883	758.2
497.3	774.4
497.696	754.2
498.113	771.4
498.509	746.4
498.927	749
499.344	743.8
499.741	760.4
500.158	748.4
500.576	755.6
500.973	752
501.39	736.2
501.787	735
502.205	737.8
502.623	733.6
503.02	733.2
503.438	730
503.856	740.6
504.253	739.4
504.671	733.8
505.068	726.2
505.486	730.8
505.905	739.6
506.302	726.8
506.72	737.6
507.118	717.4
507.536	718.6
507.955	717
508.352	729
508.771	721.2
509.169	717.2
509.587	713.8
510.006	710.8
510.404	712.8
510.823	708
511.221	708
511.64	699.8
512.038	720.6
512.457	696.8
512.877	693.2
513.275	696.4
513.694	697.2
514.092	691.2
514.512	697.6
514.91	710.6
515.33	697.2
515.749	704
516.148	692.8
516.568	691.6
516.966	689.2
517.386	680.6
517.785	685
518.205	688
518.603	675.8
519.024	679.4
519.444	683.4
519.843	690.2
520.263	683.6
520.662	675.8
521.082	674.8
521.481	678
521.902	680.4
522.301	672.4
522.722	673.2
523.121	668.8
523.542	670.2
523.963	669.4
524.362	665
524.783	672.4
525.183	669.8
525.604	671.8
526.003	652.4
526.425	659
526.824	664
527.246	669
527.646	671.2
528.067	660
528.467	657.2
528.888	654.2
529.289	655.2
529.71	657.4
530.11	648.6
530.532	651.2
530.932	646.6
531.354	649.4
531.755	679.4
532.176	659.8
532.577	649.8
532.999	649.8
533.4	646.2
533.822	652
534.223	659.2
534.645	644.6
535.046	637.2
535.468	647.2
535.869	652.8
536.292	632.2
536.693	664.8
537.115	638
537.516	630.8
537.939	631.8
538.34	643.2
538.742	653
539.165	633.6
539.566	631.8
539.989	629.6
540.391	633.2
540.814	637.4
541.216	636.8
541.639	629.6
542.041	636.4
542.464	620.2
542.866	630
543.268	628.6
543.691	634.8
544.093	639
544.517	645
544.919	620.4
545.343	648.2
545.745	626.2
546.147	626.8
546.571	628.6
546.974	617.4
547.398	628.8
547.8	638.6
548.224	622
548.627	621
549.03	627
549.454	609
549.857	611.6
550.281	618.8
550.684	605.4
551.087	627
551.512	620
551.915	618.4
552.34	614.8
552.743	608.8
553.146	613.2
553.571	618.6
553.975	623.8
554.399	610
554.803	646.2
555.207	607
555.632	603
556.036	620.8
556.461	608.4
556.865	617.8
557.268	606.4
557.694	606.2
558.098	612
558.502	604.6
558.927	605
559.332	608.6
559.736	600.2
560.162	607.4
560.566	599.6
560.992	608
561.396	604.4
561.801	602.4
562.227	603.8
562.631	602.2
563.036	605.2
563.462	613.2
563.867	600
564.272	591.4
564.698	608
565.103	594.2
565.508	618
565.935	595.8
566.34	601.4
566.745	604
567.172	595.8
567.577	618.2
567.982	604.6
568.409	600.8
568.815	587.4
569.22	593.4
569.626	605
570.053	588.8
570.459	596.6
570.865	595.6
571.292	595.4
571.698	592.4
572.104	586.6
572.531	593
572.937	599
573.343	597.6
573.75	593
574.177	590.2
574.583	596.2
574.99	587.2
575.396	597.4
575.824	593.2
576.231	595.8
576.637	584.6
577.065	608.6
577.472	585.2
577.879	591.8
578.286	595
578.714	575.6
579.121	583
579.528	590
579.935	591.2
580.364	579.2
580.771	565.6
581.178	569
581.585	584.8
582.014	583.6
582.421	580.8
582.829	578
583.236	583.8
583.644	580.4
584.073	567.8
584.481	586.4
584.889	568.4
585.296	582
585.726	584.6
586.134	570.8
586.542	581
586.95	598.4
587.358	566.4
587.787	575.8
588.196	584.4
588.604	581.4
589.012	586.8
589.421	578.4
589.851	578.8
590.259	578.4
590.668	577.8
591.076	603.4
591.485	570.8
591.894	580
592.324	598.8
592.733	586.4
593.142	571.4
593.551	576.4
593.96	598.8
594.369	572
594.8	571.2
595.209	576
595.618	561
596.028	561
596.437	562.8
596.847	572.2
597.256	578.8
597.687	579.8
598.097	570.2
598.507	565.4
598.917	575.8
599.327	589.4
599.736	587.8
600.146	577
600.556	573.2
600.988	582.2
601.398	571
601.808	589.6
602.219	567.4
602.629	578.2
603.039	582.6
603.45	592.6
603.86	573.8
604.271	584.6
604.703	575.8
605.114	569.4
605.525	567.2
605.935	569.8
606.346	588.4
606.757	574.6
607.168	567.2
607.579	573.6
607.99	577.6
608.402	576.2
608.813	572.6
609.224	564
609.636	562.4
610.047	571.8
610.48	571
610.892	579.4
611.303	577.2
611.715	576.2
612.127	562.6
612.539	565.6
612.95	573.4
613.362	559.8
613.774	570.8
614.186	564.2
614.599	569.6
615.011	571.8
615.423	569.8
615.835	563.6
616.248	562
616.66	570.2
617.073	565.6
617.485	566
617.898	577.2
618.311	568.6
618.723	568.4
619.136	587
619.549	578.4
619.962	586
620.375	570.6
620.788	573.6
621.201	577.4
621.614	572.6
622.028	571
622.441	568.2
622.854	577.8
623.268	565.4
623.681	576
624.095	569.4
624.509	579
624.922	577.4
625.336	558.4
625.728	567
626.142	575.8
626.556	582.6
626.97	571
627.384	566.2
627.799	569.8
628.213	574.8
628.627	559.8
629.041	567.8
629.456	568.4
629.87	573.8
630.285	569.4
630.699	580.2
631.093	569
631.507	571.6
631.922	566
632.337	579.2
632.752	561.4
633.167	568.4
633.582	561.6
633.997	563.4
634.412	560.8
634.806	577.4
635.221	555.2
635.637	575.4
636.052	554.4
636.468	571.6
636.883	582
637.299	565.2
637.715	559.6
638.109	564.8
638.525	553.2
638.941	579.2
639.357	565.8
639.773	569.4
640.189	553.8
640.584	561.8
641	567.8
641.416	554.6
641.832	565.2
642.249	559.4
642.665	562
643.06	565.8
643.477	572.8
643.894	544.4
644.31	563.8
644.727	567.6
645.123	562.4
645.54	561.2
645.957	560.6
646.374	570.4
646.77	568.2
647.187	586.2
647.604	566.8
648.021	551.2
648.439	554.6
648.835	567.6
649.252	564.8
649.67	554
650.088	565.8
650.484	566
650.902	566.2
651.32	566.6
651.738	562
652.134	567.4
652.552	581.2
652.971	566.4
653.389	562.8
653.786	575.2
654.204	575.6
654.622	568
655.019	562.2
655.438	564
655.857	577.8
656.275	566.8
656.673	554
657.091	574.2
657.51	560.8
657.908	567.2
658.327	575.8
658.746	556
659.144	562.6
659.563	574.4
659.982	563.4
660.38	552.2
660.8	556
661.219	573.6
661.617	560.8
662.037	565.6
662.457	570.8
662.855	553.8
663.275	591.4
663.695	558.6
664.094	568
664.514	558.4
664.934	553
665.333	566
665.753	559.2
666.152	558.8
666.572	555.2
666.993	570.2
667.392	560
667.812	552.2
668.212	561.8
668.632	575.2
669.053	556.8
669.453	567
669.874	571.2
670.273	564.2
670.694	557.4
671.116	577.6
671.515	569
671.937	557.6
672.337	567.6
672.758	560
673.158	561
673.58	555
673.98	562.2
674.402	569.8
674.824	564.6
675.224	563.4
675.646	559
676.047	560.2
676.469	551.2
676.869	555
677.292	554.8
677.693	550.6
678.115	547.4
678.516	563
678.939	561.6
679.34	553
679.762	559
680.164	555.8
680.586	544
680.988	562
681.411	572.6
681.812	555
682.236	549
682.637	553.6
683.061	554.8
683.462	566
683.864	557.2
684.288	569.2
684.69	547
685.114	571
685.516	560
685.94	552.6
686.342	565.2
686.766	553.2
687.168	560.8
687.571	570.2
687.995	562
688.398	543.4
688.822	556.2
689.225	568
689.628	575.4
690.052	563
690.456	554.2
690.88	560.2
691.284	551.2
691.687	566.4
692.112	554.6
692.515	554.4
692.919	563
693.344	559.6
693.747	551.4
694.173	552
694.577	562.8
694.98	554.8
695.406	552.4
695.81	555
696.214	568.6
696.64	564.2
697.044	562.4
697.448	566.6
697.874	551.6
698.279	553.2
698.684	547.2
699.11	555.2
699.514	557
699.919	556.4
700.324	556.6
700.75	558.8
701.156	547.4
701.561	564.8
701.987	559.8
702.393	560.6
702.798	568
703.203	561.4
703.63	551
704.036	554.8
704.442	555.4
704.847	555
705.274	556.4
705.68	558.8
706.086	560.6
706.492	543.6
706.92	553
707.326	560.2
707.732	548.8
708.139	553.4
708.545	545.6
708.973	547.4
709.38	559.4
709.786	550.8
710.193	566.2
710.6	557
711.028	551.8
711.435	558.8
711.842	552.8
712.249	551.4
712.656	558
713.064	565.6
713.492	549.6
713.9	551.8
714.307	566
714.715	558.6
715.123	562.6
715.53	559.8
715.938	559.2
716.367	557.6
716.775	560.8
717.184	552.6
717.592	561
718	563
718.408	586.6
718.816	594.2
719.225	567.4
719.633	564.2
720.042	553.8
720.472	557.6
720.881	573
721.29	563.6
721.699	552.6
722.108	567.4
722.517	556.6
722.926	557.2
723.335	560.4
723.744	557.8
724.154	557.6
724.563	559.4
724.973	563.6
725.382	549.8
725.792	556.8
726.202	553.8
726.612	583.2
727.022	547.8
727.432	548.4
779.813	550.8
780.223	591.2
780.634	555.8
781.044	551.8
781.454	549.4
781.865	565.2
782.276	550.2
782.686	563.8
783.097	552.4
783.508	555
783.919	556.2
784.33	571
784.741	565.2
785.152	550.6
785.563	542.4
785.974	553.4
786.386	566.2
786.776	553.4
787.188	552.4
787.599	551.2
788.011	563.8
788.423	557
788.835	549.4
789.247	549.2
789.659	551.4
790.071	544.8
790.483	593.2
790.874	553
791.286	562.8
791.699	551.6
792.111	550.4
792.524	557.8
792.937	557.8
793.349	549.6
793.741	557.2
794.154	551.4
794.567	573.4
794.98	554.4
795.393	543.4
795.785	570.8
796.198	558.8
796.612	556.8
797.026	558
797.439	546.2
797.831	551.8
798.245	541.6
798.659	557.8
799.073	553.4
799.487	556.2
799.88	557
800.294	553.4
800.708	563.2
801.123	556.2
801.516	571.8
801.93	557.2
802.345	552.2
802.76	556.8
803.153	570.2
803.568	571
803.983	564.4
804.377	559.4
804.792	548.6
805.207	549.2
805.601	557.2
806.016	581.2
806.432	552.2
806.826	582.2
807.242	563.6
807.658	550.8
808.052	559
808.468	554
808.884	549
809.279	558.2
809.695	564
810.111	577
810.506	554
810.922	574
811.339	547
811.734	567.8
812.151	552.4
812.546	551.4
812.963	558.8
813.38	557.6
813.776	558.2
814.193	574
814.589	547.6
815.006	552.4
815.402	544.8
815.82	544.4
816.237	559.6
816.633	549.4
817.051	544.2
817.448	561.2
817.866	549
818.262	568.6
818.68	552.6
819.077	560.4
819.495	567.6
819.892	587
820.311	551.6
820.708	554.2
821.127	552.8
821.524	572.8
821.943	559.8
822.34	571
822.759	551.8
823.157	552.2
823.576	569.8
823.974	558.8
824.393	570.8
824.791	552
825.189	552.4
825.609	544
826.007	551.8
826.427	538
826.826	555
827.246	553
827.644	538.6
828.043	561.4
828.463	544.6
828.862	561.2
829.261	556
829.682	545.6
830.081	550
830.502	545.6
830.901	554.4
831.301	561.2
831.722	547.4
832.121	551.8
832.521	545.2
832.943	553.8
833.342	553.8
833.742	556.4
834.164	545.8
834.564	542.6
834.965	557.2
835.386	556
835.787	550
836.188	553.6
836.588	556.4
837.01	554.6
837.411	538
837.812	556
838.213	549.8
838.636	545
839.037	604.6
839.438	557.6
839.84	555.2
840.263	559.4
840.664	551.4
841.066	548.8
841.468	556.8
841.891	549.6
842.293	561.2
842.695	558
843.098	557.8
843.5	551.6
843.902	554.8
844.326	558.6
844.729	555.2
845.131	570.4
845.534	558.8
845.937	566.4
846.34	564.2
846.764	547.8
847.167	552
847.571	552
847.974	557.6
848.377	554.8
848.781	579.4
849.184	562.8
849.588	548.8
849.992	546.6
850.396	554.4
850.821	566
851.225	553.8
851.63	551
852.034	555.2
852.438	549.8
852.843	578.2
853.247	549
853.652	553
854.057	567
854.462	554.8
854.867	562.6
855.272	572.4
855.677	558.8
856.082	546.2
856.487	543.8
856.893	556
857.298	546.2
857.704	551.2
858.11	553.2
858.516	554.4
858.922	555.6
859.328	558
859.734	554
860.14	554.6
860.525	557.8
860.931	545.8
861.338	549.2
861.745	563.8
862.151	564.6
862.558	561
862.965	548.2
863.372	545.6
863.779	544.2
864.186	554
864.572	553.4
864.98	564.6
865.387	584.8
865.795	546.4
866.203	562.8
866.61	549.6
867.018	557
867.405	561.2
867.813	556.4
868.221	552.6
868.63	550.6
869.038	556
869.425	583
869.834	559.4
870.243	553.6
870.652	546.8
871.039	548
871.448	546.8
871.857	560
872.266	556.6
872.654	551.6
873.064	546.8
873.473	560.6
873.883	546.4
874.271	544
874.681	555.6
875.091	545.6
875.48	559.4
875.89	564.2
876.3	552
876.689	540
877.1	552
877.51	548.6
877.9	566.8
878.31	548
878.721	576.8
879.111	556.2
879.522	549.8
879.933	548.6
880.323	548.2
880.734	546.2
881.125	542.2
881.536	542.2
881.948	540.2
882.338	555.4
882.75	553
883.141	544.6
883.553	555.8
883.944	572.8
884.356	561.2
884.769	553.6
885.16	544.6
885.573	553.8
885.964	547.2
886.377	549.6
886.768	542
887.181	548.6
887.573	544.4
887.987	560.6
888.378	555
888.792	558.6
889.184	586.8
889.598	542.6
889.99	553
890.383	544.6
890.797	545.2
891.19	556.8
891.604	542.2
891.997	545.8
892.411	550.2
892.805	548.2
893.198	551.4
893.613	546.6
894.006	553.6
894.421	552.2
894.815	554.2
895.209	546
895.624	585.8
896.018	569.6
896.412	550.8
896.828	548.2
897.222	549.8
897.617	554.6
898.033	564.6
898.427	550
898.822	546
899.239	547.6
899.634	547.2
900.029	563.8
900.424	548.8
900.841	536.8
901.236	552.2
901.632	555.2
902.027	600.4
902.445	560.4
902.841	549.6
903.237	551.2
903.633	566
904.05	553.8
904.447	550.8
904.843	552
905.24	555
905.636	542.8
906.033	552.2
906.451	549.8
906.848	542
907.246	546
907.643	554.2
908.04	549.2
908.438	560.4
908.835	553.6
909.254	550.2
909.652	559
910.05	544.8
910.448	554
910.846	552.2
911.244	541.4
911.643	557.4
912.041	546.8
912.44	560.4
912.839	542.4
913.237	545.4
913.636	546.2
914.035	558.6
914.434	553.6
914.834	557
915.233	556.2
915.633	556.4
916.032	548.2
916.432	552.2
916.832	563.8
917.232	544
917.632	541.8
918.032	556.8
918.432	550.6
918.833	548
919.233	547.2
919.634	540.6
920.035	551
920.436	543
920.837	554.8
921.238	546.6
921.639	544.2
922.019	552.4
922.42	545
922.822	555
923.224	550.4
923.625	549.6
924.027	550.8
924.429	563.6
924.81	547.4
925.212	554.8
925.615	548.2
926.017	545.8
926.42	550.8
926.801	543.8
927.204	551.4
927.607	548
928.01	560
928.413	554.2
928.795	541.8
929.199	542.8
929.602	543.8
930.006	543.8
930.388	545.8
930.792	554.6
931.196	549.2
931.579	570.2
931.983	539.2
932.388	580.8
932.771	542.8
933.176	542
933.58	547.2
933.964	553.2
934.369	549.8
934.774	547.4
935.158	548.6
935.563	550.2
935.947	541.8
936.353	556
936.759	545.2
937.143	558.6
937.549	550.2
937.934	554
938.34	564.2
938.746	540.2
939.131	542.4
939.538	542.2
939.923	555
940.33	545.2
940.716	552.4
941.123	554.8
941.508	556.4
941.916	564.8
942.302	548.6
942.709	547
943.096	541.2
943.503	547.4
943.89	551.6
944.298	548.4
944.685	573.4
945.072	543.4
945.48	558.6
945.867	554.4
946.276	551.2
946.663	568.4
947.051	571.6
947.46	563.8
947.848	551.8
948.257	547.6
948.645	555.6
949.033	551.2
949.443	550.8
949.831	585.6
950.22	551
950.63	555.6
951.018	573.8
951.407	543
951.796	554
952.207	559.8
952.596	559.8
952.985	544.6
953.375	588.4
953.786	541.6
954.176	538.8
954.566	551
954.956	542
955.367	553
955.758	572
956.148	542.6
956.539	557.4
956.929	553.2
957.341	541.2
957.732	560.6
958.123	563
958.515	549
958.906	555
959.297	540.6
959.689	551.6
960.102	549.2
960.494	549.2
960.886	551.6
961.278	543.6
961.67	563.6
962.062	579.8
962.455	549.8
962.847	542.2
963.24	547.6
963.633	545.2
964.026	544.6
964.419	552.4
964.812	552.4
965.206	550.2
965.599	559.8
965.993	553
966.386	553.4
966.78	559.6
967.174	557.4
967.569	548.2
967.963	542.4
968.357	544.8
968.752	547.6
969.146	543.2
969.541	543.4
969.936	540.4
970.331	554.4
970.705	545.6
971.1	547
971.496	553.2
971.892	536.6
972.287	545
972.683	548.6
973.079	543.6
973.454	557
973.85	555
974.247	552
974.643	560.8
975.04	547.2
975.415	549.2
975.812	544.4
976.209	547.6
976.607	537.4
976.982	560.6
977.38	564
977.778	553.4
978.175	544.2
978.552	544.4
978.95	549.6
979.348	562.8
979.725	590.6
980.123	552.4
980.522	549
980.899	549.4
981.298	546
981.697	554.4
982.075	546.8
982.474	543
982.852	556.8
983.251	556.4
983.651	549
984.029	551.4
984.429	550.4
984.808	538.4
985.208	550.6
985.609	537.2
985.987	533.2
986.388	545.4
986.768	553.6
987.168	546.8
987.548	554
987.949	555.2
988.329	552.8
988.731	537.2
989.111	548.8
989.491	547.6
989.893	550.6
990.273	550.4
990.676	543.2
991.057	542.6
991.459	548.8
991.84	553.8
992.221	540.4
992.624	560.6
993.006	559.2
993.388	557
993.791	552.8
994.173	553.6
994.576	586
994.959	543.4
995.341	538.4
995.724	545
996.128	541.8
996.511	550.4
996.894	544.8
997.298	547.2
997.681	550.2
998.065	547.6
998.448	542.4
998.854	559.4
999.237	539.4
999.621	552.8
1000.01	556.8
1000.39	544.8
1000.8	549
1001.18	550.6
1001.56	551.8
1001.95	556.2
1002.33	549.2
1002.72	549.6
1003.13	549.2
1003.51	550.2
1003.9	541.8
1004.28	555.4
1004.67	540
1005.06	548
1005.44	581.6
1005.83	540.8
1006.21	547.8
1006.6	553.4
1006.99	545.8
1007.37	553.2
1007.76	552.6
1060.12	547
1060.51	542
1060.89	547
1061.28	562.8
1061.67	553.4
1062.06	547.2
1062.45	550.4
1062.83	538.2
1063.22	560.6
1063.61	578.8
1064	555.2
1064.39	543
1064.78	545.2
1065.14	547.4
1065.53	553.6
1065.92	538
1066.31	543.6
1066.7	543.2
1067.09	554
1067.46	559.6
1067.85	537.4
1068.24	548.8
1068.63	554.2
1069.02	544.2
1069.39	548.2
1069.78	538.6
1070.17	551.2
1070.57	538.2
1070.93	542.4
1071.33	542.8
1071.72	549.2
1072.11	542.2
1072.48	545
1072.87	546.4
1073.26	548
1073.64	546
1074.03	545.6
1074.4	545.8
1074.79	546.6
1075.19	545.8
1075.56	547
1075.95	546
1076.34	541.8
1076.72	545.2
1077.11	543.8
1077.48	551.6
1077.88	548.8
1078.25	541.2
1078.64	561.6
1079.02	551.8
1079.41	560.2
1079.78	552.8
1080.18	540.2
1080.55	591
1080.95	543
1081.32	543.4
1081.72	550
1082.09	543
1082.49	541.4
1082.86	539.8
1083.24	531.2
1083.63	531
1084.01	542.8
1084.38	550.8
1084.78	537.8
1085.16	546.6
1085.55	552
1085.93	558.6
1086.31	537
1086.7	566
1087.08	544
1087.46	536
1087.83	542.6
1088.23	553.4
1088.61	546.8
1088.99	546.8
1089.36	548
1089.76	548.6
1090.14	553.4
1090.52	548.6
1090.9	547.4
1091.27	554.2
1091.67	561.4
1092.05	549.2
1092.43	545
1092.81	554.2
1093.19	548.8
1093.57	539.6
1093.95	548.6
1094.35	555.6
1094.73	552
1095.11	545.8
1095.49	549.6
1095.87	546.6
1096.25	557.4
1096.63	549.4
1097.01	542.6
1097.39	549.6
1097.77	549.6
1098.15	550.4
1098.53	539.8
1098.91	552.8
1099.29	543.4
1099.68	562.4
1100.06	555.2
1100.44	544.4
1100.82	541.8
1101.18	553.4
1101.56	550
1101.95	549.4
1102.33	549
1102.71	550.4
1103.1	534.4
1103.48	541.2
1103.86	537.8
1104.22	551.2
1104.61	545.6
1104.99	543.4
1105.38	541
1105.76	547.4
1106.12	544.4
1106.51	577.2
1106.89	556.8
1107.26	543
1107.64	547.4
1108.03	543.8
1108.41	542.2
1108.78	548.2
1109.16	545.8
1109.55	554.6
1109.91	545
1110.3	537.2
1110.69	562
1111.05	535.8
1111.44	545
1111.8	547.2
1112.19	548.6
1112.58	548
1112.94	543.2
1113.33	539.8
1113.7	538.4
1114.09	536
1114.45	543.2
1114.84	536
1115.21	548.4
1115.6	539.8
1115.96	545
1116.35	543.2
1116.72	533.6
1117.11	552.8
1117.48	540.4
1117.85	544.6
1118.24	552.8
1118.6	549.8
1118.99	539.8
1119.36	553.4
1119.73	543.2
1120.12	543.8
1120.49	532.4
1120.86	548.8
1121.25	547.8
1121.62	535
1121.99	543.8
1122.38	558.4
1122.76	550.2
1123.13	539.8
1123.5	548.4
1123.89	548.2
1124.26	542.8
1124.63	543.6
1125	549
1125.4	539.2
1125.77	538.4
1126.14	531.4
1126.51	539
1126.88	550.2
1127.26	542.8
1127.63	541.4
1128.02	547.6
1128.4	548.2
1128.77	542.8
1129.14	547.6
1129.52	547.2
1129.89	548.4
1130.26	549
1130.64	545
1131.01	543.6
