#lambda/nm	C1
208.295	544.4
208.67	488.4
209.045	447.2
209.419	445.8
209.794	603
210.169	593
210.544	704
210.919	608
211.295	601
211.67	610.2
212.045	601
212.421	597
212.796	625.2
213.172	590.6
213.547	600.4
213.923	599.6
214.299	601.4
214.675	612.8
215.051	608
215.427	610.6
215.803	618
216.179	614
216.555	604
216.932	608.4
217.308	603.4
217.684	602
218.061	613.2
218.438	607.2
218.814	593.6
219.191	608.8
219.568	599
219.945	597.6
220.322	605.6
220.699	602
221.076	608.8
221.453	605.8
221.83	596.2
222.208	594
222.585	595
222.962	602.8
223.34	606
223.717	601
224.095	600.2
224.473	594
224.851	596.2
225.229	593.6
225.607	611.8
225.985	596
226.363	607.4
226.741	602
227.119	598.8
227.497	606
227.876	594.2
228.254	603.2
228.633	600.4
229.011	598
229.39	604.4
229.769	601.8
230.148	608.6
230.527	622.2
230.905	602.8
231.284	596.2
231.664	589.4
232.043	612.6
232.422	613
232.801	595.6
233.181	608.4
233.56	600.8
233.94	603.4
234.319	594.4
234.699	589
235.079	637.2
235.458	635.4
235.838	610.8
236.218	589.6
236.598	594.2
236.978	598.6
237.358	593.2
237.738	590
238.119	602.4
238.499	596.6
238.88	603.8
239.26	615.2
239.641	591.6
240.021	599.8
240.402	600.8
240.783	592
241.163	601.4
241.544	605
241.925	596.2
242.306	612.6
242.687	607.4
243.069	606
243.45	606.6
243.831	596.6
244.212	599.8
244.594	631.8
244.975	612.8
245.357	603.4
245.739	599.8
246.12	598
246.502	619.8
246.884	602.2
247.266	597.8
247.648	607.4
248.03	619.4
248.412	604.6
248.794	607.8
249.176	599.8
249.559	608.2
249.941	604.8
250.323	588.8
250.706	595.6
251.089	601
251.471	604.8
251.854	600.2
252.237	594.8
252.62	613.4
253.002	607.2
253.385	603.6
253.769	612.4
254.152	600.6
254.535	613.4
254.918	590
255.301	599.2
255.685	597.8
256.068	594.8
256.452	624.2
256.835	613.4
257.219	610.2
257.603	609
257.986	593
258.37	604.6
258.754	597.2
259.138	616.4
259.522	615.4
259.906	600.2
260.29	606
260.675	602
261.059	597.4
261.443	590.4
261.828	605.4
262.212	595.6
262.597	591
262.981	595.6
263.366	602.6
263.751	599.2
264.136	595.2
264.521	597.8
264.906	596.4
265.291	613.4
265.676	600.6
266.061	610.2
266.446	614.4
266.831	607.4
267.217	617.6
267.602	607.4
267.987	601.8
268.373	593
268.759	600.8
269.144	612
269.53	606.8
269.916	600.2
270.302	604.8
270.688	610.2
271.074	600.4
271.46	607.6
271.846	623.4
272.232	605.8
272.618	595.4
273.004	601.4
273.391	609.4
273.777	614.8
274.164	601
274.55	618.2
274.937	610
275.324	589.2
275.71	598.8
276.097	608.8
276.484	588.4
276.871	605.4
277.258	603
277.645	585
278.032	592
278.419	599.8
278.807	598
279.194	590.4
279.581	586
279.969	602.2
280.356	593
280.744	596.8
281.131	621
281.519	604
281.907	591.4
282.295	601.2
282.682	603.4
283.07	604.2
283.458	604.8
283.846	612.4
284.235	610.6
284.623	605.4
285.011	592.6
285.399	603.2
285.788	603.4
286.176	588
286.565	610.8
286.953	592.8
287.342	597
287.731	600.8
288.119	599
288.508	598
288.897	600.2
289.286	587.8
289.675	602.8
290.064	613.4
290.453	600.6
290.821	602
291.21	613.6
291.599	593.6
291.989	606.8
292.378	607
292.768	615.4
293.157	606
293.547	611.6
293.936	600.4
294.326	598
294.716	606
295.106	605.2
295.496	610.4
295.886	608.8
296.276	604
296.666	596.4
297.056	601.6
297.446	594
297.836	615.8
298.227	606.2
298.617	606.2
299.008	610.2
299.398	611.2
299.789	601.2
300.179	611.4
300.57	611.2
300.961	601
301.352	606.8
301.742	607.2
302.133	611.4
302.524	602.8
302.915	602.2
303.307	598.2
303.698	616.6
304.089	611.2
304.48	613
304.872	604
305.263	604
305.655	604.4
306.046	607.6
306.438	601.8
306.829	598
307.221	619
307.613	619.6
308.005	616.8
308.397	613.6
308.789	616.8
309.181	621
309.573	622.4
309.965	610.2
310.357	592
310.749	607
311.142	592
311.534	601.4
311.926	607.8
312.319	599.8
312.711	604.6
313.104	616.2
313.497	605.6
313.889	636.4
314.282	614.8
314.675	627.2
315.068	605.2
315.461	615
315.854	628.4
316.247	608.8
316.64	611.2
317.033	601.2
317.405	606.4
317.798	609.2
318.192	605.2
318.585	595.6
318.979	606.6
319.372	593.6
319.766	607.2
320.16	614
320.553	612
320.947	620.8
321.341	600.8
321.735	599
322.129	588.8
322.523	620.8
322.917	586
323.311	614.6
323.705	602.4
324.099	609.6
324.494	606.8
324.888	608.8
325.282	606
325.677	611.2
326.071	616.6
326.466	613.4
326.861	610
327.255	613
327.65	617
328.045	624.2
328.44	610.2
328.835	600.8
329.23	594.4
329.625	625.6
330.02	599
330.415	623.2
330.81	595
331.206	603
331.601	599
331.996	608.2
332.37	618.8
332.766	589.4
333.161	612.2
333.557	595.2
333.953	600.2
334.348	931.2
334.744	601
335.14	598.2
335.536	603.2
335.932	616.2
336.328	602.4
336.724	611.2
337.12	603.4
337.516	606.2
337.913	600.8
338.309	619.8
338.705	607.4
339.102	607
339.498	596.2
339.895	617.4
340.291	596.4
340.688	614
341.085	594.8
341.481	605.2
341.878	605.2
342.275	626
342.672	601.8
343.069	592
343.466	592.6
343.842	607.8
344.239	594.4
344.636	610.6
345.033	595.8
345.431	595
345.828	599.2
346.225	601.6
346.623	631
347.02	605.2
347.418	613
347.816	611
348.213	592.2
348.611	606.8
349.009	599.6
349.407	609.4
349.805	596
350.203	583.4
350.601	611
350.999	600
351.397	655.6
351.795	607
352.193	608.2
352.57	607.4
352.969	608.8
353.367	593
353.766	584.4
354.164	599.6
354.563	607
354.961	601.2
355.36	597.2
355.759	591.6
356.158	586.2
356.557	590
356.956	598
357.355	597
357.754	603.4
358.153	601.8
358.552	625.6
358.951	599.4
359.35	613.8
359.75	599
360.149	591.2
360.527	589.4
360.926	595.2
361.326	600.8
361.726	592.8
362.125	596.6
362.525	602.6
362.925	596.6
363.325	601.8
363.724	595.6
364.124	594.8
364.524	592.4
364.924	603.2
365.324	605.8
365.725	585.8
366.125	610.4
366.525	581.4
366.904	592.2
367.304	583.6
367.705	611.8
368.105	607.6
368.506	592.8
368.906	599.4
369.307	592.4
369.708	597.8
370.108	586
370.509	597.4
370.91	594.6
371.311	590.4
371.712	596.8
372.113	589.2
372.514	591.8
372.894	597.8
373.295	593
373.696	602.8
374.097	594.4
374.499	612.4
374.9	589.8
375.301	583.6
375.703	593.2
376.105	580.4
376.506	587
376.908	591.4
377.309	579.6
377.711	590.8
378.113	581
378.493	595.2
378.895	588.4
379.297	601.8
379.699	584.8
380.102	593.8
380.504	588
380.906	588
381.308	612.4
381.71	587.2
382.113	596.6
382.515	593.2
382.918	588.4
383.299	593.6
383.701	606.2
384.104	595
384.507	589
384.909	600
385.312	581.6
385.715	581
386.118	590
386.521	582
386.924	602.4
387.327	593
387.709	581
388.112	584.8
388.515	597.6
388.918	599.6
389.322	596.2
389.725	591.6
390.129	607.2
390.532	591.6
390.936	592.4
391.339	588.4
391.743	600.2
392.125	589.2
392.529	602.6
392.933	608.2
393.337	603.8
393.74	590.2
394.144	594.2
394.548	583
394.953	592.4
395.357	599.4
395.761	594.2
396.144	597.2
396.548	590.6
396.952	596.8
397.357	601
397.761	592.8
398.166	590.4
398.57	594.4
398.975	579.4
399.379	588.4
399.763	634.2
400.168	594.2
400.572	599.6
400.977	590.6
401.382	610.8
401.787	603.4
402.192	608.2
402.597	605.8
403.002	587.8
403.386	601
403.791	605.6
404.197	590
404.602	591
405.007	595.8
405.413	596.4
405.818	597
406.224	595
406.608	587.4
407.014	584
407.42	620
407.825	583.4
408.231	595.4
408.637	592
409.043	609.6
409.449	599.2
409.834	592.8
410.24	593
410.646	607.8
411.052	598.2
411.458	591.8
411.865	603.4
412.271	607.8
412.677	600.2
413.062	597.2
413.469	584.8
413.875	618.4
414.282	608.4
414.689	599.4
415.095	605.6
415.502	596
415.888	599.8
416.294	583
416.701	635.8
417.108	598.2
417.515	598.8
417.923	603
418.33	617.4
418.715	606.8
419.123	587.8
419.53	590
419.937	600.8
420.345	601.6
420.752	602.8
421.16	603
421.546	595.2
421.953	610.4
422.361	588.6
422.769	595
423.177	592.4
423.585	617.4
423.992	612.4
424.379	607
424.787	606.2
425.195	621.4
425.603	597.6
426.011	607.4
426.419	609.2
426.806	594.6
427.214	604.6
427.623	617.8
428.031	613.6
428.44	608
428.848	609.8
429.235	618.8
429.644	612
430.053	602.4
430.461	629.6
430.87	635.6
431.279	627.8
431.666	615.2
432.075	626.6
432.484	642.4
432.893	636.6
433.302	670.6
433.711	694
434.099	668.2
434.508	666.6
434.918	667.2
435.327	698.6
435.737	693.4
436.125	711
436.534	713.8
436.944	714.2
437.353	728.4
437.763	752.4
438.173	729.4
438.561	754.4
438.971	744.8
439.381	775.6
439.791	773
440.201	768.8
440.589	786.6
440.999	802.2
441.409	812
441.819	802.2
442.23	820.8
442.619	830.2
443.029	827.4
443.439	832.6
443.85	841.6
444.26	848.4
444.649	859.2
445.06	848.8
445.471	853.6
445.881	861.2
446.292	875
446.682	882.8
447.092	852
447.503	922.6
447.914	865.6
448.325	871.6
448.715	874.2
449.126	871
449.537	886
449.948	898.6
450.338	880.6
450.75	895.6
451.161	901.6
451.572	905
451.984	891.6
452.374	887.4
452.786	904.4
453.197	898
453.609	916.2
453.999	887
454.411	891.8
454.823	924.8
455.235	907.8
455.647	906.2
456.037	921.4
456.449	904
456.862	912.8
457.274	924.8
457.665	907.2
458.077	916.4
458.489	943.2
458.902	920.2
459.293	918.6
459.705	903.4
460.118	913.4
460.53	914.2
460.921	912.2
461.334	935.4
461.747	913
462.16	932.4
462.551	945.4
462.964	917.6
463.377	902.6
463.79	920
464.182	929.6
464.595	924
465.008	915.8
465.421	926
465.813	929.2
466.226	938
466.64	914.2
467.053	972.4
467.445	932.2
467.859	938.8
468.272	922.4
468.686	936
469.078	928.6
469.492	907.2
469.906	918.2
470.298	922.2
470.712	912.4
471.126	950.2
471.54	896.4
471.933	895.8
472.347	912.4
472.761	899.4
473.175	905.4
473.568	904.4
473.982	914.2
474.397	908.6
474.79	903.6
475.204	910.2
475.619	898.4
476.033	908.4
476.426	893.2
476.841	898.2
477.256	923.6
477.649	879.6
478.064	886.6
478.479	881.4
478.872	886.6
479.287	883.2
479.702	881.6
480.118	892.2
480.511	878
480.927	887.8
481.342	883.6
481.736	876.4
482.151	873.8
482.566	891.2
482.96	875.4
483.376	893.2
483.792	871
484.186	882
484.602	870.4
485.017	872.8
485.412	865
485.827	873.2
486.243	866
486.638	895.2
487.054	874.4
487.47	880.8
487.865	857.6
488.281	855.4
488.697	848
489.092	858.6
489.508	848.4
489.925	856.6
490.32	840
490.736	859.2
491.153	846.4
491.548	846
491.964	846.8
492.381	829
492.776	849
493.193	830.2
493.61	838.6
494.006	839
494.422	836
494.84	827.8
495.235	836
495.652	822
496.069	831.2
496.465	812.4
496.883	818.6
497.3	841
497.696	816.4
498.113	817.4
498.509	805
498.927	804.8
499.344	808.2
499.741	804.6
500.158	812.2
500.576	814
500.973	801.6
501.39	785.8
501.787	780
502.205	803
502.623	790.2
503.02	781
503.438	790.4
503.856	786.2
504.253	797.4
504.671	779.4
505.068	780.2
505.486	782.6
505.905	797.6
506.302	774.8
506.72	787
507.118	758
507.536	777
507.955	774.6
508.352	765
508.771	769.6
509.169	764.2
509.587	758.8
510.006	754.8
510.404	752.2
510.823	757.4
511.221	746.4
511.64	753.4
512.038	766.8
512.457	747.2
512.877	745.6
513.275	743
513.694	742.8
514.092	735.2
514.512	740.8
514.91	741.2
515.33	731
515.749	733.8
516.148	735.2
516.568	738.8
516.966	726.4
517.386	727.2
517.785	726
518.205	717.2
518.603	712.4
519.024	711.2
519.444	727.2
519.843	730.6
520.263	724.2
520.662	716.2
521.082	710
521.481	711.8
521.902	717.2
522.301	706.2
522.722	708
523.121	715.4
523.542	702.4
523.963	708.8
524.362	702.4
524.783	705.6
525.183	694.6
525.604	695.4
526.003	696.4
526.425	686.6
526.824	705.2
527.246	694.2
527.646	698.6
528.067	692.6
528.467	694.4
528.888	690
529.289	686.4
529.71	691.6
530.11	675.2
530.532	681
530.932	671.8
531.354	673.6
531.755	715
532.176	689.8
532.577	677.2
532.999	674.6
533.4	676.8
533.822	690.4
534.223	686.8
534.645	669
535.046	668.6
535.468	672
535.869	688.6
536.292	671
536.693	695
537.115	672.4
537.516	659.8
537.939	671.2
538.34	677.6
538.742	679.4
539.165	671.8
539.566	666.2
539.989	657.4
540.391	660.6
540.814	666.2
541.216	656.8
541.639	670
542.041	663
542.464	661.4
542.866	657.2
543.268	652.6
543.691	661
544.093	672.4
544.517	663.6
544.919	649
545.343	672
545.745	648.8
546.147	643.2
546.571	653
546.974	642.8
547.398	645.8
547.8	658.4
548.224	648.6
548.627	637.6
549.03	656.4
549.454	631.8
549.857	634.4
550.281	635.4
550.684	637.8
551.087	648.4
551.512	640.2
551.915	648
552.34	643.8
552.743	642.8
553.146	641
553.571	643.2
553.975	655.8
554.399	636.8
554.803	687.2
555.207	632.8
555.632	615
556.036	637.4
556.461	633
556.865	636.4
557.268	628.2
557.694	632
558.098	636.4
558.502	636.6
558.927	626
559.332	635.2
559.736	633.4
560.162	634
560.566	625.6
560.992	637.8
561.396	639
561.801	626.2
562.227	629.2
562.631	623.8
563.036	625.6
563.462	626.8
563.867	627.4
564.272	614.4
564.698	623.6
565.103	614
565.508	648.4
565.935	622.4
566.34	615.2
566.745	624.8
567.172	610.6
567.577	623.6
567.982	631
568.409	617.8
568.815	598
569.22	615.4
569.626	614.6
570.053	602
570.459	624.2
570.865	624.6
571.292	626.6
571.698	610.4
572.104	594.2
572.531	603.2
572.937	622.2
573.343	614.2
573.75	607.8
574.177	610
574.583	610.4
574.99	611.2
575.396	611.2
575.824	610
576.231	615.4
576.637	607.4
577.065	628.4
577.472	613.6
577.879	610.2
578.286	617.8
578.714	606.2
579.121	605
579.528	606.8
579.935	615.2
580.364	603
580.771	597
581.178	594.6
581.585	614.4
582.014	610
582.421	598.4
582.829	605.2
583.236	617
583.644	606.6
584.073	603.4
584.481	605
584.889	602.8
585.296	606.6
585.726	603.2
586.134	605.2
586.542	597.2
586.95	613.2
587.358	590.6
587.787	601.4
588.196	611.8
588.604	606
589.012	595.4
589.421	597.6
589.851	594.6
590.259	597.2
590.668	601
591.076	627.8
591.485	598.8
591.894	605.4
592.324	615.8
592.733	613.8
593.142	589.8
593.551	596.8
593.96	630
594.369	593.8
594.8	589.4
595.209	600.2
595.618	581
596.028	593.6
596.437	593.8
596.847	592
597.256	595.4
597.687	596.8
598.097	589
598.507	581.8
598.917	596.8
599.327	595.8
599.736	604.6
600.146	599.8
600.556	591
600.988	605.2
601.398	591
601.808	600
602.219	583.8
602.629	586.8
603.039	595
603.45	623
603.86	591.2
604.271	609.2
604.703	592
605.114	590.6
605.525	594
605.935	596
606.346	614.8
606.757	598
607.168	589.8
607.579	585.6
607.99	589.8
608.402	599.2
608.813	593.6
609.224	586.8
609.636	583.8
610.047	588.8
610.48	594.2
610.892	599.6
611.303	596.8
611.715	584.4
612.127	585.6
612.539	588.4
612.95	584.4
613.362	573.6
613.774	578.4
614.186	580.2
614.599	580.8
615.011	597.2
615.423	593
615.835	579.8
616.248	582.6
616.66	590.4
617.073	577.6
617.485	588.6
617.898	594.6
618.311	589.2
618.723	587.6
619.136	615.2
619.549	598.8
619.962	597
620.375	592.6
620.788	582.2
621.201	586
621.614	588.8
622.028	591.2
622.441	585.6
622.854	597.2
623.268	577
623.681	587.4
624.095	580.8
624.509	592.8
624.922	587.2
625.336	574
625.728	591.4
626.142	589.4
626.556	595.2
626.97	596
627.384	578.2
627.799	584.6
628.213	592.8
628.627	589.6
629.041	586.6
629.456	587
629.87	586.4
630.285	592.6
630.699	592.4
631.093	591
631.507	590.6
631.922	590.2
632.337	600.4
632.752	578.4
633.167	592
633.582	588.4
633.997	586.8
634.412	583.8
634.806	588.2
635.221	579
635.637	604.8
636.052	577.6
636.468	587.2
636.883	596.8
637.299	585.8
637.715	571.6
638.109	587
638.525	572.2
638.941	589.4
639.357	584.4
639.773	599.4
640.189	590
640.584	588.2
641	586.8
641.416	572
641.832	586.2
642.249	580.2
642.665	588.8
643.06	587
643.477	595.8
643.894	572.2
644.31	587.2
644.727	582.6
645.123	588.6
645.54	580
645.957	586.2
646.374	595
646.77	585
647.187	606.4
647.604	588
648.021	576.6
648.439	578.6
648.835	582.4
649.252	588
649.67	583
650.088	587.2
650.484	589.8
650.902	582.6
651.32	597.6
651.738	586.4
652.134	586.2
652.552	595.4
652.971	592.2
653.389	579.4
653.786	595.4
654.204	605
654.622	579
655.019	579.8
655.438	582
655.857	582
656.275	583.4
656.673	578.4
657.091	590.8
657.51	567.6
657.908	582
658.327	599.8
658.746	576.2
659.144	580
659.563	591.8
659.982	577.8
660.38	570
660.8	581
661.219	590.2
661.617	582.4
662.037	580
662.457	587.6
662.855	570.6
663.275	606
663.695	579.2
664.094	570.4
664.514	578.6
664.934	570.4
665.333	580.8
665.753	566.4
666.152	570.8
666.572	571
666.993	589.8
667.392	579.6
667.812	574.6
668.212	568
668.632	586.8
669.053	569.4
669.453	578.8
669.874	581.4
670.273	579.2
670.694	573.8
671.116	593.6
671.515	583.8
671.937	573.6
672.337	577
672.758	575.6
673.158	584.4
673.58	571
673.98	582.6
674.402	583.8
674.824	574.8
675.224	575
675.646	569.4
676.047	571.2
676.469	576.8
676.869	582.6
677.292	579.4
677.693	567
678.115	569.8
678.516	579.6
678.939	583.8
679.34	578.4
679.762	580.2
680.164	582.6
680.586	574.2
680.988	581.2
681.411	600.2
681.812	577.2
682.236	573.2
682.637	566.6
683.061	571
683.462	579.4
683.864	577.2
684.288	584.2
684.69	572.6
685.114	580
685.516	593
685.94	568.6
686.342	580.4
686.766	574
687.168	574
687.571	591.4
687.995	585.2
688.398	574.8
688.822	579.8
689.225	584.2
689.628	591.8
690.052	581.2
690.456	583.2
690.88	581.8
691.284	570
691.687	582.6
692.112	574
692.515	577.4
692.919	582
693.344	577
693.747	569.4
694.173	578.8
694.577	591.2
694.98	579.4
695.406	583
695.81	579
696.214	587.6
696.64	582.2
697.044	580.4
697.448	583.8
697.874	577.4
698.279	574.8
698.684	573.4
699.11	573.4
699.514	572.6
699.919	579.2
700.324	568.4
700.75	577.6
701.156	577.8
701.561	587.8
701.987	581.4
702.393	581.6
702.798	590.2
703.203	580.2
703.63	575.2
704.036	577.8
704.442	576.6
704.847	569.4
705.274	571.8
705.68	583.2
706.086	586.2
706.492	571.6
706.92	581.2
707.326	580.2
707.732	573
708.139	566.6
708.545	571.2
708.973	568
709.38	575
709.786	563
710.193	588.2
710.6	575
711.028	567
711.435	576.4
711.842	571.4
712.249	571.6
712.656	578
713.064	583.2
713.492	565
713.9	584
714.307	579.8
714.715	577.6
715.123	575.4
715.53	582
715.938	582
716.367	574.2
716.775	572.8
717.184	570
717.592	576.2
718	584
718.408	604.4
718.816	613.2
719.225	574.8
719.633	566.8
720.042	565.8
720.472	562.6
720.881	592.6
721.29	573.4
721.699	559.2
722.108	578
722.517	577.8
722.926	565.2
723.335	582.8
723.744	574.6
724.154	576
724.563	572
724.973	574.2
725.382	576
725.792	573.2
726.202	564.6
726.612	594.2
727.022	564.6
727.432	569.6
779.813	568.6
780.223	604
780.634	576.4
781.044	572.8
781.454	582.8
781.865	583.8
782.276	563.4
782.686	578.4
783.097	575
783.508	565.2
783.919	573
784.33	584
784.741	578.6
785.152	582
785.563	566.4
785.974	571.6
786.386	585.2
786.776	569.4
787.188	580.4
787.599	568.6
788.011	578.6
788.423	578.4
788.835	569.6
789.247	569.8
789.659	569.8
790.071	570.2
790.483	609.2
790.874	571.2
791.286	579.4
791.699	568.8
792.111	576.6
792.524	577.6
792.937	573.8
793.349	569.6
793.741	568.8
794.154	564.4
794.567	595.2
794.98	571
795.393	561.6
795.785	588
796.198	578.2
796.612	574.2
797.026	569.8
797.439	560.2
797.831	578
798.245	567.2
798.659	578.2
799.073	567.2
799.487	570.2
799.88	576
800.294	575.4
800.708	580
801.123	578.2
801.516	593.4
801.93	564.4
802.345	563.4
802.76	574.2
803.153	584.2
803.568	585.6
803.983	584.2
804.377	581
804.792	565.8
805.207	565.2
805.601	577.2
806.016	600.6
806.432	565.8
806.826	600.2
807.242	586.2
807.658	585.2
808.052	567.6
808.468	565.8
808.884	569.4
809.279	577.2
809.695	577.2
810.111	594.6
810.506	571.4
810.922	580.4
811.339	565.4
811.734	576.4
812.151	558.6
812.546	564
812.963	557.8
813.38	568.8
813.776	568.4
814.193	577.6
814.589	563.8
815.006	569.8
815.402	566.6
815.82	568
816.237	569
816.633	570.2
817.051	555.4
817.448	572.6
817.866	562.8
818.262	584.8
818.68	559.6
819.077	573.2
819.495	565.2
819.892	611
820.311	565.6
820.708	570.6
821.127	572.6
821.524	582.4
821.943	570
822.34	586.2
822.759	575.4
823.157	568.6
823.576	584.8
823.974	571.4
824.393	618
824.791	573.4
825.189	569.2
825.609	564.2
826.007	571.8
826.427	567
826.826	570.2
827.246	572.6
827.644	558.4
828.043	582.2
828.463	568.2
828.862	573.4
829.261	571.2
829.682	555
830.081	572.8
830.502	565.4
830.901	578.4
831.301	584
831.722	563.4
832.121	578.8
832.521	570.4
832.943	572.4
833.342	571
833.742	567.6
834.164	570.8
834.564	565.6
834.965	568.6
835.386	573.2
835.787	569.4
836.188	569.2
836.588	569.6
837.01	574
837.411	571.2
837.812	575
838.213	575
838.636	573
839.037	626.4
839.438	567.2
839.84	572.4
840.263	572.2
840.664	580.4
841.066	575.4
841.468	576.6
841.891	564.6
842.293	577.8
842.695	582.8
843.098	582.6
843.5	572
843.902	575.6
844.326	573.8
844.729	573.8
845.131	577.2
845.534	569.2
845.937	586
846.34	582.8
846.764	570.6
847.167	577
847.571	563.6
847.974	572.6
848.377	572.2
848.781	617.4
849.184	572.4
849.588	567.2
849.992	566.8
850.396	578.8
850.821	587
851.225	568.4
851.63	564.6
852.034	580.8
852.438	573
852.843	591.2
853.247	560.2
853.652	568
854.057	583.6
854.462	584.4
854.867	575.6
855.272	593.2
855.677	574
856.082	570.8
856.487	560.4
856.893	570.2
857.298	567.6
857.704	562.8
858.11	572.2
858.516	580
858.922	568.4
859.328	579
859.734	574.4
860.14	573.8
860.525	570.4
860.931	567
861.338	571.2
861.745	579.2
862.151	576.6
862.558	569.4
862.965	568.8
863.372	561.2
863.779	568.4
864.186	587.6
864.572	566
864.98	580
865.387	592.8
865.795	560.2
866.203	571.8
866.61	558.6
867.018	565.4
867.405	578.4
867.813	565.4
868.221	562
868.63	562
869.038	573.2
869.425	599.4
869.834	567.8
870.243	559.6
870.652	569
871.039	577.8
871.448	564
871.857	582.2
872.266	566.8
872.654	566.4
873.064	567
873.473	580.8
873.883	564.4
874.271	558
874.681	575.8
875.091	565
875.48	579.4
875.89	585.8
876.3	569.4
876.689	559.8
877.1	565.8
877.51	569.6
877.9	587
878.31	561.8
878.721	598.4
879.111	566.4
879.522	573
879.933	553.6
880.323	561.6
880.734	564.8
881.125	573.2
881.536	568
881.948	557.6
882.338	569.8
882.75	575.8
883.141	559.6
883.553	571.2
883.944	600
884.356	576.2
884.769	570
885.16	570.8
885.573	575.2
885.964	560.6
886.377	565.8
886.768	562.4
887.181	568.4
887.573	563.2
887.987	572.4
888.378	577
888.792	573.2
889.184	614
889.598	568.2
889.99	565.6
890.383	561.2
890.797	565.6
891.19	579.8
891.604	563.6
891.997	556.8
892.411	565.6
892.805	558
893.198	562.8
893.613	566.2
894.006	578
894.421	569.2
894.815	563.4
895.209	569.8
895.624	613.2
896.018	584.8
896.412	563.2
896.828	562.6
897.222	570.4
897.617	567.4
898.033	579.2
898.427	570.8
898.822	571.8
899.239	565
899.634	565.8
900.029	590.6
900.424	552.4
900.841	557.8
901.236	576.6
901.632	577.8
902.027	620.2
902.445	581.4
902.841	568.8
903.237	571.6
903.633	583.2
904.05	577.8
904.447	573.2
904.843	569.4
905.24	567.4
905.636	557.8
906.033	564.4
906.451	575
906.848	558.2
907.246	567.4
907.643	565.4
908.04	569
908.438	571.8
908.835	572.4
909.254	558.8
909.652	562.6
910.05	567
910.448	557.8
910.846	563.2
911.244	555.2
911.643	561
912.041	566.8
912.44	580.8
912.839	565.2
913.237	561.2
913.636	562.8
914.035	569.2
914.434	563.6
914.834	580.6
915.233	575.2
915.633	558.8
916.032	560.4
916.432	559.2
916.832	579.2
917.232	568.6
917.632	562.2
918.032	577.8
918.432	562
918.833	568.8
919.233	564.2
919.634	555.6
920.035	576.8
920.436	561.6
920.837	566.6
921.238	567.2
921.639	568.2
922.019	570.4
922.42	571.2
922.822	572
923.224	563.8
923.625	563
924.027	558.6
924.429	583.6
924.81	576.6
925.212	573.6
925.615	558.6
926.017	569.8
926.42	576
926.801	570.6
927.204	571.6
927.607	575.4
928.01	577.6
928.413	560
928.795	558.4
929.199	568
929.602	569.8
930.006	560.4
930.388	562.8
930.792	567.6
931.196	574
931.579	600
931.983	558.8
932.388	612.8
932.771	566
933.176	560.4
933.58	571.6
933.964	580
934.369	564.2
934.774	573
935.158	563.6
935.563	567.6
935.947	569
936.353	575.4
936.759	564.4
937.143	576.8
937.549	574.4
937.934	577.6
938.34	584.8
938.746	562.4
939.131	569.8
939.538	566.2
939.923	571.8
940.33	559.8
940.716	566.8
941.123	570
941.508	575.6
941.916	585.6
942.302	573.2
942.709	556.2
943.096	564.2
943.503	573.6
943.89	564.6
944.298	561
944.685	591.8
945.072	562.8
945.48	573.8
945.867	554.8
946.276	565.8
946.663	584.6
947.051	585.2
947.46	579.4
947.848	564
948.257	559.8
948.645	568.2
949.033	561
949.443	561.4
949.831	602.2
950.22	559.8
950.63	576.8
951.018	598.6
951.407	573.6
951.796	555.6
952.207	570.2
952.596	570.4
952.985	558.2
953.375	599.2
953.786	569
954.176	561.8
954.566	569.6
954.956	552.8
955.367	565.4
955.758	580.4
956.148	558
956.539	576.4
956.929	563.6
957.341	561.6
957.732	561
958.123	575.4
958.515	562
958.906	568.4
959.297	558.2
959.689	559.4
960.102	555.6
960.494	563.4
960.886	567.4
961.278	565.6
961.67	580.6
962.062	595.2
962.455	564.8
962.847	554
963.24	558.8
963.633	561
964.026	558.2
964.419	562.4
964.812	582
965.206	559.4
965.599	571.4
965.993	567.6
966.386	566.2
966.78	577.4
967.174	577
967.569	559.6
967.963	560.4
968.357	556
968.752	557
969.146	566.2
969.541	563.8
969.936	565.6
970.331	575.8
970.705	563.6
971.1	559.8
971.496	578.4
971.892	571.2
972.287	563.8
972.683	561
973.079	567.2
973.454	583.6
973.85	574.6
974.247	575.8
974.643	588.8
975.04	565.4
975.415	560.2
975.812	565
976.209	570.6
976.607	568.8
976.982	580.6
977.38	580.8
977.778	562.8
978.175	562.6
978.552	569
978.95	568.4
979.348	571.4
979.725	611
980.123	568.8
980.522	559.4
980.899	567
981.298	560.4
981.697	579.4
982.075	567.6
982.474	557
982.852	566.4
983.251	567.2
983.651	560.2
984.029	567.8
984.429	576
984.808	561.6
985.208	557
985.609	557.8
985.987	550.6
986.388	561.6
986.768	570.6
987.168	561.6
987.548	572.4
987.949	567.6
988.329	572
988.731	553.8
989.111	565.6
989.491	572.8
989.893	568.2
990.273	581.2
990.676	566.2
991.057	557.4
991.459	569.8
991.84	565.6
992.221	555
992.624	576.6
993.006	560.2
993.388	569.6
993.791	569
994.173	566
994.576	596.6
994.959	558.6
995.341	558.8
995.724	567.2
996.128	559.4
996.511	565.6
996.894	563
997.298	561
997.681	572.4
998.065	564.6
998.448	563.4
998.854	568.4
999.237	553.6
999.621	573
1000.01	578.6
1000.39	561.8
1000.8	560.2
1001.18	572.2
1001.56	565.4
1001.95	561
1002.33	561.2
1002.72	570.4
1003.13	562.8
1003.51	558
1003.9	552.4
1004.28	579.2
1004.67	563.8
1005.06	558.2
1005.44	587.4
1005.83	555
1006.21	566.8
1006.6	561.8
1006.99	572
1007.37	571.2
1007.76	569.6
1060.12	556
1060.51	565
1060.89	570.2
1061.28	574.2
1061.67	578.2
1062.06	570.6
1062.45	568
1062.83	560.4
1063.22	572.8
1063.61	601.6
1064	564.8
1064.39	566
1064.78	567.6
1065.14	572
1065.53	569.4
1065.92	560.6
1066.31	560
1066.7	569.8
1067.09	571.6
1067.46	568.4
1067.85	559.4
1068.24	562.2
1068.63	568.6
1069.02	561
1069.39	569
1069.78	562
1070.17	568.4
1070.57	559.8
1070.93	568.8
1071.33	571.8
1071.72	566.6
1072.11	559
1072.48	561.8
1072.87	565.4
1073.26	561.4
1073.64	557.6
1074.03	554.2
1074.4	561.8
1074.79	554.2
1075.19	567.8
1075.56	570
1075.95	570.6
1076.34	562.8
1076.72	561.4
1077.11	566.6
1077.48	571.6
1077.88	564
1078.25	563.6
1078.64	564.4
1079.02	573.2
1079.41	574.6
1079.78	564.6
1080.18	559.8
1080.55	625.4
1080.95	558.2
1081.32	570.6
1081.72	557.8
1082.09	563.4
1082.49	558
1082.86	570.8
1083.24	551.2
1083.63	563.4
1084.01	571.8
1084.38	570
1084.78	554.8
1085.16	570.6
1085.55	577
1085.93	583.2
1086.31	566.6
1086.7	588.8
1087.08	564
1087.46	561
1087.83	549.2
1088.23	562.2
1088.61	558
1088.99	563.4
1089.36	560.8
1089.76	559
1090.14	565
1090.52	558.4
1090.9	556.2
1091.27	570.2
1091.67	586
1092.05	573.6
1092.43	560.8
1092.81	571.6
1093.19	567.6
1093.57	556.8
1093.95	558
1094.35	572.4
1094.73	566.4
1095.11	553.6
1095.49	558.2
1095.87	560.2
1096.25	566
1096.63	564.2
1097.01	564.8
1097.39	571.4
1097.77	559.2
1098.15	566
1098.53	564.2
1098.91	558.6
1099.29	568.4
1099.68	576
1100.06	562.4
1100.44	552.8
1100.82	562.6
1101.18	567.8
1101.56	554.4
1101.95	561.2
1102.33	556.8
1102.71	562.2
1103.1	557.8
1103.48	556.8
1103.86	554.8
1104.22	570.8
1104.61	563.4
1104.99	559.8
1105.38	549.4
1105.76	565.8
1106.12	555
1106.51	599
1106.89	568.4
1107.26	565.2
1107.64	567
1108.03	563.2
1108.41	561.6
1108.78	568.2
1109.16	562.2
1109.55	569
1109.91	558
1110.3	552.8
1110.69	570.4
1111.05	564.8
1111.44	565.8
1111.8	563.2
1112.19	569
1112.58	561.4
1112.94	557.8
1113.33	564.8
1113.7	558.4
1114.09	557.6
1114.45	557.6
1114.84	561.8
1115.21	564.2
1115.6	556.2
1115.96	564.6
1116.35	577.8
1116.72	565.6
1117.11	577.4
1117.48	564.2
1117.85	558.8
1118.24	576.8
1118.6	559.6
1118.99	552.8
1119.36	570.4
1119.73	566.8
1120.12	574.4
1120.49	559
1120.86	569.4
1121.25	561.4
1121.62	554
1121.99	565.8
1122.38	570.2
1122.76	570
1123.13	559.6
1123.5	565.2
1123.89	569.4
1124.26	555
1124.63	563.6
1125	565
1125.4	556.4
1125.77	561
1126.14	555
1126.51	558
1126.88	571
1127.26	564.2
1127.63	552
1128.02	566.8
1128.4	557
1128.77	560
1129.14	558.2
1129.52	556.8
1129.89	562.2
1130.26	550.2
1130.64	560.6
1131.01	560.6
