#lambda/nm	C1
208.295	534.2
208.67	483.4
209.045	448
209.419	437.4
209.794	607.2
210.169	587.4
210.544	701.6
210.919	605
211.295	596.8
211.67	606.2
212.045	600.2
212.421	604.2
212.796	638
213.172	598.8
213.547	596.6
213.923	604.8
214.299	601
214.675	611
215.051	611.2
215.427	613.6
215.803	614.2
216.179	613
216.555	607.4
216.932	611.4
217.308	598.8
217.684	606.6
218.061	613
218.438	611.8
218.814	604
219.191	614
219.568	595
219.945	599
220.322	613
220.699	614.2
221.076	613.6
221.453	612.8
221.83	600.6
222.208	594.2
222.585	607
222.962	606.4
223.34	604.6
223.717	604.2
224.095	599.8
224.473	603.8
224.851	600.4
225.229	587.4
225.607	618.6
225.985	592
226.363	602.8
226.741	605.2
227.119	602
227.497	610
227.876	588.4
228.254	615.2
228.633	598
229.011	608.6
229.39	603.4
229.769	599.8
230.148	609.6
230.527	611
230.905	600.4
231.284	613.4
231.664	599.2
232.043	610.2
232.422	611
232.801	594.6
233.181	605
233.56	602.6
233.94	615.6
234.319	595.4
234.699	601
235.079	640.2
235.458	639.2
235.838	622
236.218	597.8
236.598	597
236.978	601
237.358	601.8
237.738	595.4
238.119	612.8
238.499	591
238.88	608.4
239.26	617.4
239.641	594.8
240.021	597
240.402	608.8
240.783	596.6
241.163	605
241.544	606
241.925	604.4
242.306	620.8
242.687	608.6
243.069	597.4
243.45	613.2
243.831	601
244.212	597.2
244.594	632.6
244.975	613.6
245.357	598.6
245.739	593.6
246.12	607.8
246.502	610.8
246.884	597.6
247.266	600
247.648	608.6
248.03	616
248.412	600.8
248.794	608.4
249.176	604.8
249.559	611.4
249.941	592.8
250.323	593.8
250.706	596.4
251.089	602.6
251.471	609.2
251.854	606
252.237	602.2
252.62	626
253.002	604.4
253.385	610.8
253.769	619.8
254.152	599.8
254.535	612.4
254.918	602
255.301	608
255.685	604.2
256.068	598.2
256.452	629.4
256.835	615.6
257.219	610
257.603	611.4
257.986	598.6
258.37	605.4
258.754	599.4
259.138	612.2
259.522	615
259.906	598.4
260.29	606.6
260.675	605.2
261.059	602.2
261.443	596.6
261.828	605.2
262.212	607.6
262.597	593.2
262.981	600.6
263.366	608.6
263.751	604.2
264.136	600.6
264.521	603.8
264.906	599
265.291	616.8
265.676	600.2
266.061	607.2
266.446	615.2
266.831	602.2
267.217	624.8
267.602	617
267.987	608.6
268.373	608
268.759	618
269.144	610.6
269.53	609.6
269.916	604.6
270.302	601.4
270.688	606
271.074	611.8
271.46	620
271.846	632.4
272.232	604
272.618	607
273.004	607.4
273.391	615.2
273.777	618.4
274.164	603.2
274.55	618.2
274.937	605.4
275.324	600.2
275.71	610.6
276.097	610.8
276.484	602
276.871	609.2
277.258	611.8
277.645	599.6
278.032	605.6
278.419	611.8
278.807	611.4
279.194	601.8
279.581	599.4
279.969	608.6
280.356	613.4
280.744	602.4
281.131	635.8
281.519	609
281.907	596.4
282.295	607.6
282.682	616.4
283.07	610
283.458	612.4
283.846	621.8
284.235	616.2
284.623	617.2
285.011	596.4
285.399	611
285.788	598.4
286.176	593.8
286.565	618.8
286.953	590.6
287.342	598.8
287.731	599.6
288.119	594
288.508	594.6
288.897	600.8
289.286	591.4
289.675	606.2
290.064	609
290.453	602.8
290.821	598.6
291.21	622.2
291.599	601.8
291.989	609.2
292.378	615.8
292.768	615
293.157	603
293.547	619.6
293.936	605.4
294.326	606.4
294.716	605
295.106	598
295.496	611.6
295.886	609
296.276	598
296.666	596.2
297.056	603.2
297.446	593.2
297.836	627.2
298.227	604.8
298.617	608.4
299.008	616.8
299.398	609.4
299.789	602.2
300.179	607
300.57	627.8
300.961	592.2
301.352	603.4
301.742	615
302.133	600.4
302.524	604
302.915	603
303.307	590.4
303.698	609
304.089	615.4
304.48	592.2
304.872	604
305.263	598
305.655	588.4
306.046	608.8
306.438	605.8
306.829	598
307.221	615.8
307.613	598.8
308.005	609.2
308.397	616.6
308.789	620.8
309.181	624.2
309.573	615.6
309.965	622.6
310.357	601.4
310.749	609.2
311.142	601
311.534	600.4
311.926	612.2
312.319	610.8
312.711	596.8
313.104	618.4
313.497	600.4
313.889	642.8
314.282	618.6
314.675	624
315.068	606.2
315.461	618.4
315.854	631
316.247	607.4
316.64	603.8
317.033	608
317.405	611.2
317.798	607.4
318.192	614
318.585	597.4
318.979	613.4
319.372	599.6
319.766	608.4
320.16	621
320.553	617.6
320.947	622.4
321.341	601.4
321.735	606
322.129	601.2
322.523	629.8
322.917	601.2
323.311	622.4
323.705	603
324.099	609.4
324.494	628
324.888	619.8
325.282	603.8
325.677	619.4
326.071	604.8
326.466	614.4
326.861	605.6
327.255	611.4
327.65	614.2
328.045	615.8
328.44	603.2
328.835	607
329.23	591.2
329.625	625.4
330.02	599.2
330.415	618.6
330.81	603
331.206	601.4
331.601	597.8
331.996	610.6
332.37	619.4
332.766	590.2
333.161	624
333.557	613
333.953	613.6
334.348	958
334.744	602.8
335.14	599.8
335.536	606.6
335.932	615.8
336.328	606.4
336.724	608.8
337.12	610.4
337.516	604.6
337.913	603.2
338.309	616.4
338.705	605.6
339.102	613.4
339.498	603.6
339.895	614.2
340.291	610
340.688	619.6
341.085	594.2
341.481	600.2
341.878	604.2
342.275	619
342.672	595.6
343.069	596.4
343.466	588.2
343.842	613.4
344.239	599.4
344.636	607
345.033	590.2
345.431	602.4
345.828	610
346.225	604.8
346.623	634.2
347.02	607.6
347.418	604.8
347.816	621.2
348.213	593
348.611	607.4
349.009	600.4
349.407	618
349.805	592.2
350.203	595
350.601	612.6
350.999	591.8
351.397	643.4
351.795	612.4
352.193	609.2
352.57	604.8
352.969	616.4
353.367	596
353.766	595.6
354.164	600.4
354.563	614.4
354.961	607.4
355.36	602.2
355.759	599.8
356.158	597.2
356.557	595.8
356.956	591.8
357.355	589.2
357.754	600.8
358.153	604.8
358.552	619.2
358.951	606.4
359.35	612.2
359.75	598.8
360.149	591
360.527	595.6
360.926	597.4
361.326	598.2
361.726	597.8
362.125	597
362.525	607.6
362.925	592.2
363.325	595.8
363.724	596.2
364.124	599.2
364.524	590
364.924	594.8
365.324	606.8
365.725	590.4
366.125	600.2
366.525	601.8
366.904	593.2
367.304	581.4
367.705	618.6
368.105	614
368.506	602.2
368.906	607.8
369.307	593.6
369.708	599.4
370.108	589.2
370.509	604.4
370.91	584.8
371.311	609
371.712	596.2
372.113	596.4
372.514	598.6
372.894	596.6
373.295	594
373.696	613.8
374.097	603.2
374.499	628.2
374.9	602.8
375.301	589.8
375.703	601.6
376.105	592.8
376.506	594.4
376.908	594.8
377.309	599.2
377.711	592.4
378.113	599.6
378.493	591.6
378.895	595.8
379.297	612
379.699	589.8
380.102	601.4
380.504	592.4
380.906	594.2
381.308	620.8
381.71	601.2
382.113	610.2
382.515	590.8
382.918	597.8
383.299	597.4
383.701	611.2
384.104	599
384.507	577.6
384.909	599.4
385.312	585.4
385.715	588.8
386.118	595
386.521	592.6
386.924	604.2
387.327	593.2
387.709	581.2
388.112	584
388.515	594.6
388.918	593
389.322	606.4
389.725	589.2
390.129	612
390.532	602.2
390.936	589.6
391.339	585.2
391.743	601.6
392.125	594.8
392.529	609.4
392.933	611.2
393.337	602.8
393.74	597
394.144	603.6
394.548	586.4
394.953	591.6
395.357	601
395.761	594.8
396.144	594
396.548	595.8
396.952	608.2
397.357	595.6
397.761	590.2
398.166	593.2
398.57	592.2
398.975	592.6
399.379	602
399.763	646.8
400.168	598.4
400.572	600
400.977	587.2
401.382	610
401.787	599.2
402.192	605
402.597	610.4
403.002	575.2
403.386	603.8
403.791	610.4
404.197	579
404.602	589
405.007	595.8
405.413	594.2
405.818	593.4
406.224	589.8
406.608	591.2
407.014	596.4
407.42	615
407.825	587
408.231	597.6
408.637	607.8
409.043	614.2
409.449	593
409.834	589.8
410.24	603.4
410.646	612.2
411.052	610.4
411.458	599.4
411.865	605.2
412.271	618.8
412.677	594.6
413.062	605.2
413.469	583.4
413.875	621.8
414.282	614.8
414.689	594
415.095	601.8
415.502	590.6
415.888	597.4
416.294	584.2
416.701	640.4
417.108	598.8
417.515	601.2
417.923	598.4
418.33	610.8
418.715	610
419.123	595.2
419.53	591.2
419.937	598
420.345	611
420.752	600.8
421.16	612.6
421.546	597.6
421.953	602.2
422.361	592.6
422.769	592.4
423.177	585.2
423.585	611.4
423.992	610.4
424.379	608.2
424.787	603
425.195	604.6
425.603	593.2
426.011	613
426.419	613.4
426.806	604
427.214	599.6
427.623	606
428.031	611.4
428.44	600.4
428.848	609
429.235	615.4
429.644	600.6
430.053	605.8
430.461	621
430.87	630.2
431.279	618.8
431.666	613.4
432.075	615.2
432.484	620
432.893	624.8
433.302	641.8
433.711	666.4
434.099	629.4
434.508	636.4
434.918	628
435.327	649.4
435.737	649.2
436.125	655.8
436.534	650.8
436.944	664
437.353	678.6
437.763	690.8
438.173	668.4
438.561	693.8
438.971	665.4
439.381	683.6
439.791	695
440.201	684.6
440.589	699.6
440.999	717.6
441.409	709
441.819	707.2
442.23	725.8
442.619	726.8
443.029	720.4
443.439	726.2
443.85	731.2
444.26	744.8
444.649	739.6
445.06	730.8
445.471	734.4
445.881	744.4
446.292	750
446.682	759.4
447.092	736.6
447.503	788.8
447.914	749.4
448.325	752.6
448.715	756.2
449.126	754.8
449.537	760.8
449.948	750.6
450.338	758.6
450.75	774.8
451.161	763
451.572	767.6
451.984	759.8
452.374	751
452.786	764.2
453.197	770
453.609	769.2
453.999	757.4
454.411	752.8
454.823	772.6
455.235	776.2
455.647	755.6
456.037	786.6
456.449	755
456.862	778.2
457.274	775.4
457.665	768.8
458.077	785
458.489	805
458.902	773
459.293	778.8
459.705	779.6
460.118	776.8
460.53	779.6
460.921	780.6
461.334	786
461.747	771.8
462.16	789
462.551	787.2
462.964	779.8
463.377	762.4
463.79	773.2
464.182	781.4
464.595	766.2
465.008	783.6
465.421	788.4
465.813	781
466.226	785.2
466.64	779.8
467.053	827
467.445	794.4
467.859	799.2
468.272	777.6
468.686	787.8
469.078	775.2
469.492	769.8
469.906	785.8
470.298	797.8
470.712	780
471.126	819.4
471.54	763.6
471.933	777.2
472.347	778.4
472.761	767.4
473.175	767
473.568	773.8
473.982	767.6
474.397	772
474.79	776.2
475.204	773.8
475.619	758.2
476.033	766.8
476.426	769.6
476.841	766
477.256	791.2
477.649	765.4
478.064	763
478.479	766.6
478.872	763.2
479.287	756
479.702	767
480.118	764
480.511	761.6
480.927	764.2
481.342	747.6
481.736	763.8
482.151	764
482.566	771
482.96	752.8
483.376	772.6
483.792	749
484.186	759.8
484.602	755
485.017	759.2
485.412	750.6
485.827	764.2
486.243	750
486.638	770
487.054	770.8
487.47	756.2
487.865	744.6
488.281	738.4
488.697	747.6
489.092	744.2
489.508	745
489.925	752.4
490.32	735.4
490.736	743
491.153	744
491.548	738.8
491.964	749
492.381	724.6
492.776	741
493.193	732.4
493.61	737.2
494.006	730.2
494.422	743.6
494.84	716.6
495.235	725
495.652	720.6
496.069	723
496.465	716.8
496.883	725.6
497.3	736.4
497.696	713
498.113	716.2
498.509	714.6
498.927	705.4
499.344	707.6
499.741	714.8
500.158	723.6
500.576	723.8
500.973	708.4
501.39	700.6
501.787	705.6
502.205	711.6
502.623	702.8
503.02	699.2
503.438	700.6
503.856	696
504.253	700.8
504.671	696
505.068	698.8
505.486	698.6
505.905	717.6
506.302	699.6
506.72	703.6
507.118	695
507.536	696
507.955	692.2
508.352	699.6
508.771	700.4
509.169	698.8
509.587	680.6
510.006	688.4
510.404	674.2
510.823	691.8
511.221	687.2
511.64	685.2
512.038	702
512.457	686.6
512.877	675
513.275	680.4
513.694	680.2
514.092	673.8
514.512	678.8
514.91	686.8
515.33	673
515.749	674.4
516.148	669.8
516.568	672.6
516.966	673
517.386	679.2
517.785	663.4
518.205	662.4
518.603	664
519.024	651.4
519.444	665.2
519.843	666.4
520.263	668.6
520.662	673.8
521.082	654.8
521.481	663.2
521.902	657.8
522.301	651
522.722	660
523.121	657.8
523.542	651.6
523.963	657.4
524.362	656.2
524.783	657.4
525.183	654.2
525.604	661.4
526.003	652.2
526.425	640.4
526.824	661.2
527.246	655.6
527.646	655.2
528.067	657
528.467	650.6
528.888	652.8
529.289	649.6
529.71	649
530.11	638.4
530.532	644
530.932	636.8
531.354	637.2
531.755	679.2
532.176	651.2
532.577	642.2
532.999	649.2
533.4	639.2
533.822	645.2
534.223	649.4
534.645	638.8
535.046	641.2
535.468	642
535.869	660.6
536.292	638.4
536.693	668
537.115	640
537.516	630.6
537.939	627.2
538.34	642.8
538.742	645.2
539.165	637.8
539.566	634.4
539.989	625
540.391	631.6
540.814	629.6
541.216	632.8
541.639	633.4
542.041	640.6
542.464	629
542.866	624.4
543.268	618.8
543.691	632.2
544.093	629.8
544.517	647.4
544.919	620.8
545.343	642
545.745	624.4
546.147	626.8
546.571	627.8
546.974	618.6
547.398	624.6
547.8	636.8
548.224	617
548.627	623
549.03	627.2
549.454	619.4
549.857	615.8
550.281	620.8
550.684	622.8
551.087	634
551.512	619.8
551.915	629.6
552.34	607.6
552.743	621.2
553.146	624.4
553.571	619
553.975	644.6
554.399	613.6
554.803	662.8
555.207	610.2
555.632	613.6
556.036	618.4
556.461	619.6
556.865	627.6
557.268	611.8
557.694	606.8
558.098	624
558.502	619.8
558.927	612.2
559.332	612.2
559.736	614.4
560.162	625
560.566	615.2
560.992	614.8
561.396	608.6
561.801	604.8
562.227	609
562.631	610.6
563.036	611.8
563.462	617.6
563.867	615
564.272	599.4
564.698	622.4
565.103	600.8
565.508	624.2
565.935	618.6
566.34	606.8
566.745	614.4
567.172	614.4
567.577	629.2
567.982	632.6
568.409	614
568.815	607.4
569.22	609.2
569.626	614.6
570.053	596
570.459	607.2
570.865	610.8
571.292	610.4
571.698	603
572.104	595.4
572.531	600.8
572.937	615.4
573.343	611.6
573.75	606
574.177	614.4
574.583	610.4
574.99	601.4
575.396	610.8
575.824	605
576.231	612.8
576.637	595.6
577.065	627.6
577.472	590.4
577.879	603.4
578.286	611
578.714	595.2
579.121	599.4
579.528	598.8
579.935	610.8
580.364	597.8
580.771	591
581.178	597.4
581.585	601.8
582.014	604.2
582.421	592.8
582.829	598.4
583.236	601
583.644	594.8
584.073	603
584.481	603.2
584.889	593
585.296	604.2
585.726	602
586.134	598.2
586.542	597.8
586.95	608.8
587.358	590
587.787	594.4
588.196	607.2
588.604	598.2
589.012	590.8
589.421	591.8
589.851	600.4
590.259	591.4
590.668	594.2
591.076	632.8
591.485	587.8
591.894	595.4
592.324	601.2
592.733	601.8
593.142	573.8
593.551	581.4
593.96	622.8
594.369	579.8
594.8	584.2
595.209	589
595.618	573.8
596.028	591.8
596.437	586.4
596.847	590.2
597.256	592
597.687	592.4
598.097	590.2
598.507	573.6
598.917	582.2
599.327	590.4
599.736	599.6
600.146	593
600.556	592.2
600.988	590.2
601.398	580.8
601.808	599
602.219	576.2
602.629	592.2
603.039	589
603.45	611.2
603.86	598.2
604.271	598.8
604.703	587.6
605.114	589.6
605.525	593
605.935	588.6
606.346	609.2
606.757	598.2
607.168	593.8
607.579	589.6
607.99	598.2
608.402	589.2
608.813	595
609.224	591.2
609.636	585.4
610.047	591
610.48	585.4
610.892	596.6
611.303	598.8
611.715	582.2
612.127	586.8
612.539	585.8
612.95	592.6
613.362	569.2
613.774	578.2
614.186	589
614.599	587.4
615.011	596.8
615.423	593.4
615.835	587.4
616.248	587
616.66	589.8
617.073	582
617.485	586
617.898	593.4
618.311	588.2
618.723	584.2
619.136	609.6
619.549	602.2
619.962	604.6
620.375	583.6
620.788	594.4
621.201	577
621.614	593
622.028	582.2
622.441	586.8
622.854	597.6
623.268	585.4
623.681	594.4
624.095	590.2
624.509	594.6
624.922	587.6
625.336	577.6
625.728	589.4
626.142	594.2
626.556	607.2
626.97	590.2
627.384	589
627.799	583.8
628.213	599.8
628.627	593.8
629.041	574.8
629.456	588.2
629.87	585
630.285	592
630.699	592
631.093	584.2
631.507	588.6
631.922	596.2
632.337	591.2
632.752	579
633.167	590.4
633.582	590
633.997	584.6
634.412	584.6
634.806	578.2
635.221	583.8
635.637	588.2
636.052	574.4
636.468	591.4
636.883	599.2
637.299	581.2
637.715	578.8
638.109	584.6
638.525	577.4
638.941	594.6
639.357	583
639.773	587.4
640.189	576.6
640.584	577.2
641	579.4
641.416	563.8
641.832	575.8
642.249	577.8
642.665	584.8
643.06	588.4
643.477	594.6
643.894	575.2
644.31	580.6
644.727	587.2
645.123	585
645.54	568.8
645.957	585.4
646.374	593.2
646.77	580.6
647.187	601.4
647.604	586.4
648.021	564.2
648.439	581.4
648.835	590.8
649.252	588.8
649.67	584.8
650.088	579.6
650.484	587.8
650.902	590.8
651.32	581.8
651.738	580
652.134	580.4
652.552	601.2
652.971	598
653.389	582.2
653.786	603.6
654.204	604
654.622	583.2
655.019	592.2
655.438	584.6
655.857	580
656.275	585
656.673	584
657.091	588.8
657.51	581.4
657.908	587.4
658.327	585.2
658.746	568.4
659.144	586.8
659.563	597
659.982	587.8
660.38	581.6
660.8	577.2
661.219	579.2
661.617	583.6
662.037	583.6
662.457	595.4
662.855	571.2
663.275	612.6
663.695	577.8
664.094	589.8
664.514	584.6
664.934	577.6
665.333	593.4
665.753	583.2
666.152	573.4
666.572	572.4
666.993	590.4
667.392	579.4
667.812	582.8
668.212	578.4
668.632	597.2
669.053	582.4
669.453	586.8
669.874	583.4
670.273	589.4
670.694	571.2
671.116	594.4
671.515	590.4
671.937	589.2
672.337	583.6
672.758	578.6
673.158	593.4
673.58	574
673.98	583.8
674.402	594
674.824	580.2
675.224	577.2
675.646	572
676.047	579
676.469	582.8
676.869	589
677.292	581.4
677.693	578.8
678.115	571.6
678.516	579
678.939	581.2
679.34	586.6
679.762	593.8
680.164	585
680.586	567.8
680.988	589.8
681.411	605.8
681.812	574.4
682.236	580.6
682.637	572.2
683.061	565.6
683.462	582.2
683.864	583.2
684.288	584.4
684.69	572
685.114	588.6
685.516	587
685.94	572.4
686.342	588.6
686.766	574.6
687.168	579
687.571	597.2
687.995	580.2
688.398	575.2
688.822	579.6
689.225	586.2
689.628	598
690.052	565.8
690.456	577.8
690.88	577.6
691.284	566
691.687	580.6
692.112	570
692.515	568
692.919	573
693.344	578.4
693.747	570.8
694.173	566
694.577	582.6
694.98	578.2
695.406	573
695.81	586.6
696.214	575.2
696.64	580.8
697.044	589.6
697.448	586
697.874	582.2
698.279	578.2
698.684	573.2
699.11	573.4
699.514	570.6
699.919	573.4
700.324	565.2
700.75	578.8
701.156	574
701.561	588.2
701.987	590.8
702.393	588.4
702.798	585.4
703.203	580.8
703.63	573.8
704.036	579.4
704.442	577.4
704.847	573.2
705.274	581.4
705.68	572.4
706.086	582.6
706.492	572.6
706.92	586.4
707.326	583.8
707.732	583
708.139	570.4
708.545	568.8
708.973	575.2
709.38	580.2
709.786	564.2
710.193	591.6
710.6	571.8
711.028	576.2
711.435	577.2
711.842	576.4
712.249	580.4
712.656	573.8
713.064	586.2
713.492	567
713.9	578.2
714.307	577
714.715	581.8
715.123	579.2
715.53	575
715.938	589.6
716.367	582.6
716.775	572.4
717.184	565
717.592	575.2
718	579.6
718.408	604.8
718.816	623
719.225	583.4
719.633	578.4
720.042	567.8
720.472	577.2
720.881	594.6
721.29	587.2
721.699	573.8
722.108	584
722.517	580.4
722.926	574.6
723.335	584.8
723.744	574.8
724.154	576.4
724.563	578.6
724.973	583.4
725.382	578
725.792	573.4
726.202	569.4
726.612	595
727.022	569.4
727.432	576.6
779.813	577
780.223	618.8
780.634	576.2
781.044	573.6
781.454	577.2
781.865	587.2
782.276	569.8
782.686	592.6
783.097	582
783.508	571.6
783.919	581.4
784.33	583.6
784.741	584
785.152	567.4
785.563	564.8
785.974	565.6
786.386	584.4
786.776	569.6
787.188	573.4
787.599	574.6
788.011	576
788.423	580
788.835	572.6
789.247	568.6
789.659	575.8
790.071	569.8
790.483	614.4
790.874	582.6
791.286	581.2
791.699	578.2
792.111	572
792.524	578.2
792.937	573
793.349	567
793.741	573.4
794.154	571.4
794.567	591.4
794.98	577.4
795.393	575.8
795.785	596.6
796.198	574
796.612	572
797.026	568.6
797.439	564.8
797.831	579.6
798.245	569.2
798.659	572.2
799.073	581.8
799.487	574.2
799.88	580.4
800.294	576.2
800.708	579.4
801.123	577.8
801.516	601
801.93	564.6
802.345	566
802.76	579.6
803.153	587.4
803.568	595
803.983	588.4
804.377	577.6
804.792	572.8
805.207	566.6
805.601	574.8
806.016	616.4
806.432	575
806.826	598.4
807.242	584
807.658	589
808.052	574.2
808.468	579.4
808.884	570.8
809.279	577
809.695	585.6
810.111	589.4
810.506	575.4
810.922	593.8
811.339	570.4
811.734	579.8
812.151	575.4
812.546	566.2
812.963	577.6
813.38	579.4
813.776	571.2
814.193	589
814.589	568
815.006	564.6
815.402	563.6
815.82	571.2
816.237	579.8
816.633	572.2
817.051	572.2
817.448	577.6
817.866	565.6
818.262	585.6
818.68	564
819.077	569.6
819.495	577
819.892	611.8
820.311	563.2
820.708	574
821.127	567.8
821.524	590.4
821.943	579.6
822.34	597.2
822.759	574.8
823.157	574.2
823.576	583.2
823.974	580.2
824.393	623.2
824.791	573.8
825.189	569.4
825.609	567.8
826.007	576.4
826.427	569
826.826	576
827.246	576.8
827.644	563.8
828.043	580.4
828.463	571.4
828.862	576
829.261	576.8
829.682	566.4
830.081	579
830.502	576.4
830.901	571.4
831.301	590.6
831.722	570
832.121	573.2
832.521	576.4
832.943	570
833.342	575.2
833.742	566.2
834.164	570.2
834.564	561.6
834.965	577.2
835.386	574.6
835.787	566.6
836.188	569.2
836.588	572.2
837.01	569.8
837.411	561
837.812	575.4
838.213	573.2
838.636	564.2
839.037	626.8
839.438	577
839.84	569.2
840.263	575
840.664	570.2
841.066	565.2
841.468	569.2
841.891	569.6
842.293	580.6
842.695	568
843.098	575.4
843.5	571.6
843.902	575.4
844.326	569.8
844.729	567.6
845.131	582.6
845.534	572.4
845.937	584.2
846.34	583
846.764	566.6
847.167	571.6
847.571	564
847.974	568.6
848.377	573.6
848.781	618.6
849.184	584.4
849.588	570.2
849.992	573.4
850.396	571.8
850.821	593.4
851.225	575.8
851.63	569.2
852.034	582.6
852.438	572.6
852.843	595.8
853.247	568
853.652	571.8
854.057	595.4
854.462	578.2
854.867	572.2
855.272	608.4
855.677	575.6
856.082	567.8
856.487	574.8
856.893	572
857.298	572.8
857.704	571.8
858.11	579.2
858.516	573.2
858.922	567.6
859.328	586.8
859.734	575.4
860.14	580.4
860.525	572.4
860.931	564.6
861.338	572
861.745	573.2
862.151	581.4
862.558	566.4
862.965	565.4
863.372	565.4
863.779	564.8
864.186	584.2
864.572	563.4
864.98	577.8
865.387	600.8
865.795	566.4
866.203	572.4
866.61	564
867.018	582.4
867.405	568
867.813	569.2
868.221	573.6
868.63	572.6
869.038	584.6
869.425	603.4
869.834	569.6
870.243	572.6
870.652	572.2
871.039	560.2
871.448	573.4
871.857	579.8
872.266	573
872.654	572
873.064	573.2
873.473	581.4
873.883	569.6
874.271	564.6
874.681	583
875.091	560
875.48	581.2
875.89	590.8
876.3	576.4
876.689	566.4
877.1	570.6
877.51	578.4
877.9	590
878.31	572.4
878.721	596.4
879.111	573.2
879.522	574.4
879.933	561.2
880.323	556
880.734	566.4
881.125	578.6
881.536	567.8
881.948	569
882.338	569
882.75	575
883.141	564.8
883.553	568.8
883.944	587.6
884.356	576
884.769	566.8
885.16	573.2
885.573	568.8
885.964	566.8
886.377	576.8
886.768	569.8
887.181	567.4
887.573	561.2
887.987	579
888.378	586.4
888.792	578.6
889.184	622.2
889.598	568.2
889.99	575.8
890.383	566.6
890.797	567.4
891.19	588
891.604	570
891.997	563.6
892.411	567.4
892.805	566
893.198	570.4
893.613	560.8
894.006	570.8
894.421	563.6
894.815	569
895.209	570
895.624	608.2
896.018	586.6
896.412	559.8
896.828	575.4
897.222	569
897.617	570.2
898.033	597.6
898.427	571
898.822	569.4
899.239	566.8
899.634	570.8
900.029	583.6
900.424	557
900.841	556.6
901.236	582.6
901.632	577.4
902.027	626.6
902.445	579.2
902.841	566.4
903.237	570.6
903.633	588.4
904.05	567
904.447	574.6
904.843	581.8
905.24	564.4
905.636	555.4
906.033	569
906.451	577.2
906.848	564.8
907.246	567
907.643	563.6
908.04	574.2
908.438	584.6
908.835	580.4
909.254	573.2
909.652	571.8
910.05	578.4
910.448	564.8
910.846	572.4
911.244	559.8
911.643	574.4
912.041	576.6
912.44	587
912.839	570
913.237	561.8
913.636	561.8
914.035	573.8
914.434	571.8
914.834	571
915.233	576.6
915.633	569.2
916.032	560.4
916.432	564.2
916.832	590
917.232	565.6
917.632	558.6
918.032	573.2
918.432	567
918.833	574
919.233	565.2
919.634	566.6
920.035	577
920.436	568.4
920.837	573.8
921.238	566.2
921.639	562.4
922.019	565.6
922.42	573.8
922.822	572
923.224	573.8
923.625	559.2
924.027	566.2
924.429	586.6
924.81	575.2
925.212	572.2
925.615	577.2
926.017	572.2
926.42	577.6
926.801	575.8
927.204	558.8
927.607	571.8
928.01	582.6
928.413	579.2
928.795	562.6
929.199	572.4
929.602	567
930.006	562.6
930.388	571.4
930.792	573
931.196	574.4
931.579	593.4
931.983	560
932.388	605
932.771	563.6
933.176	561.6
933.58	570
933.964	566.8
934.369	554.6
934.774	570.2
935.158	569.8
935.563	566.4
935.947	574.8
936.353	580.4
936.759	564.2
937.143	574
937.549	565.8
937.934	573.8
938.34	578.8
938.746	559.4
939.131	565.2
939.538	558.8
939.923	570.6
940.33	570.2
940.716	567.4
941.123	576
941.508	578.2
941.916	582.8
942.302	573
942.709	561.6
943.096	569.8
943.503	571.2
943.89	573
944.298	566.4
944.685	598.8
945.072	565.4
945.48	581.6
945.867	567.8
946.276	562.2
946.663	588.8
947.051	584.8
947.46	581.4
947.848	572
948.257	577
948.645	568.4
949.033	565.2
949.443	569.2
949.831	598.2
950.22	564.8
950.63	575.4
951.018	603.2
951.407	575.4
951.796	562.8
952.207	580
952.596	576.2
952.985	559.8
953.375	607.2
953.786	566
954.176	562
954.566	567.8
954.956	557.4
955.367	568.4
955.758	582.6
956.148	553.6
956.539	574.2
956.929	565.4
957.341	561
957.732	561.6
958.123	578
958.515	557.8
958.906	578.6
959.297	568.6
959.689	572.8
960.102	563.8
960.494	569.6
960.886	566
961.278	567.6
961.67	583.6
962.062	598.6
962.455	567.2
962.847	563.4
963.24	561.8
963.633	566.4
964.026	564.8
964.419	567.6
964.812	577
965.206	569.8
965.599	571
965.993	561.8
966.386	569.2
966.78	579.2
967.174	578.4
967.569	559.2
967.963	561
968.357	564.4
968.752	564.8
969.146	565.4
969.541	562
969.936	569
970.331	579
970.705	571
971.1	570.6
971.496	586.4
971.892	560.4
972.287	566.6
972.683	572.2
973.079	563.2
973.454	572
973.85	566.6
974.247	569.8
974.643	596.6
975.04	567.6
975.415	571.6
975.812	558.2
976.209	574.2
976.607	557.2
976.982	577.6
977.38	581.6
977.778	565.4
978.175	560
978.552	567
978.95	574.8
979.348	567.4
979.725	612.8
980.123	574.8
980.522	572.4
980.899	565.6
981.298	576.4
981.697	572
982.075	562.8
982.474	564.4
982.852	575
983.251	573.4
983.651	566
984.029	576
984.429	568.8
984.808	557.2
985.208	553.8
985.609	564.8
985.987	555.2
986.388	553.2
986.768	577
987.168	569.8
987.548	575.6
987.949	574
988.329	578.8
988.731	550.2
989.111	568.6
989.491	568.2
989.893	571
990.273	574.8
990.676	562.4
991.057	560.4
991.459	566
991.84	579.4
992.221	565.2
992.624	588.8
993.006	567.4
993.388	573.6
993.791	580.8
994.173	564
994.576	592.8
994.959	553.2
995.341	563.6
995.724	569.4
996.128	567.8
996.511	570.8
996.894	562.8
997.298	562.8
997.681	568.8
998.065	570.2
998.448	555.2
998.854	579.8
999.237	558.4
999.621	579.6
1000.01	584.6
1000.39	575.6
1000.8	570.8
1001.18	573.6
1001.56	572.6
1001.95	575.6
1002.33	569.6
1002.72	568.2
1003.13	570
1003.51	564
1003.9	557.4
1004.28	597.2
1004.67	568.8
1005.06	564.6
1005.44	596.6
1005.83	561.8
1006.21	561.8
1006.6	564.2
1006.99	577
1007.37	579.4
1007.76	565.2
1060.12	554.6
1060.51	558.6
1060.89	577
1061.28	575.6
1061.67	579.2
1062.06	572.2
1062.45	569.8
1062.83	565
1063.22	576.6
1063.61	609
1064	570.2
1064.39	571.8
1064.78	571.2
1065.14	577.2
1065.53	571.8
1065.92	557.4
1066.31	565
1066.7	574.8
1067.09	578.2
1067.46	582
1067.85	567.2
1068.24	569.2
1068.63	573
1069.02	564.6
1069.39	569
1069.78	565.6
1070.17	563.8
1070.57	560.8
1070.93	569.4
1071.33	560
1071.72	561.6
1072.11	557.6
1072.48	567.4
1072.87	574.6
1073.26	562.8
1073.64	561
1074.03	554.6
1074.4	547.4
1074.79	562.6
1075.19	564.4
1075.56	562.2
1075.95	559.8
1076.34	558
1076.72	558.4
1077.11	561
1077.48	565
1077.88	564
1078.25	558.6
1078.64	568.8
1079.02	562
1079.41	569.4
1079.78	555.8
1080.18	562.2
1080.55	619.2
1080.95	557.6
1081.32	562.4
1081.72	565.4
1082.09	566.4
1082.49	566
1082.86	568.4
1083.24	564
1083.63	552.2
1084.01	562.6
1084.38	566.2
1084.78	563
1085.16	574.8
1085.55	577.2
1085.93	584.6
1086.31	556.2
1086.7	582.6
1087.08	567.8
1087.46	561.6
1087.83	555
1088.23	569.2
1088.61	563.8
1088.99	574.8
1089.36	562.6
1089.76	572
1090.14	568.6
1090.52	562.8
1090.9	559.6
1091.27	579
1091.67	588.6
1092.05	573.2
1092.43	568.4
1092.81	576.2
1093.19	576.2
1093.57	562.2
1093.95	571
1094.35	573.2
1094.73	574.4
1095.11	557.6
1095.49	555
1095.87	567.4
1096.25	570
1096.63	567.8
1097.01	562.2
1097.39	570.4
1097.77	562.2
1098.15	561.8
1098.53	554.6
1098.91	555.4
1099.29	565
1099.68	574.6
1100.06	568.8
1100.44	570.8
1100.82	560.2
1101.18	568.2
1101.56	566.6
1101.95	556.4
1102.33	563.6
1102.71	572.8
1103.1	557.2
1103.48	555
1103.86	560.4
1104.22	562
1104.61	559.6
1104.99	556.2
1105.38	563
1105.76	565.8
1106.12	565.4
1106.51	600
1106.89	568.8
1107.26	572
1107.64	577.4
1108.03	559.8
1108.41	568.8
1108.78	575.4
1109.16	564.2
1109.55	581.6
1109.91	558.8
1110.3	563.2
1110.69	570.8
1111.05	561.4
1111.44	561.6
1111.8	564.4
1112.19	566.8
1112.58	569.6
1112.94	562.4
1113.33	565.8
1113.7	561.2
1114.09	562.8
1114.45	557.6
1114.84	565.2
1115.21	564.8
1115.6	560.6
1115.96	570.6
1116.35	568.6
1116.72	561.2
1117.11	576.2
1117.48	558
1117.85	566
1118.24	576.2
1118.6	570.4
1118.99	552
1119.36	563.6
1119.73	563
1120.12	567.6
1120.49	565
1120.86	568
1121.25	568.4
1121.62	551.4
1121.99	559.4
1122.38	575.4
1122.76	569.2
1123.13	559.4
1123.5	565.2
1123.89	569.8
1124.26	551.4
1124.63	569.2
1125	567.4
1125.4	559.2
1125.77	558.2
1126.14	546.6
1126.51	566.2
1126.88	567.6
1127.26	569.6
1127.63	548.6
1128.02	558.8
1128.4	563.6
1128.77	568.8
1129.14	560.8
1129.52	569.8
1129.89	575.8
1130.26	553.6
1130.64	565.6
1131.01	558.4
