#lambda/nm	C1
208.295	544.4
208.67	488.6
209.045	451.4
209.419	447.6
209.794	602.4
210.169	585.4
210.544	693.4
210.919	612.4
211.295	597.2
211.67	607.2
212.045	599.6
212.421	597.8
212.796	638.8
213.172	602.2
213.547	596.2
213.923	602.6
214.299	592
214.675	611.4
215.051	601.6
215.427	606.6
215.803	618.6
216.179	603.8
216.555	595.2
216.932	602.6
217.308	595.8
217.684	607.2
218.061	603.8
218.438	598.2
218.814	598.4
219.191	604
219.568	584.8
219.945	595.8
220.322	602.8
220.699	597.2
221.076	603
221.453	598.2
221.83	595.8
222.208	587.4
222.585	593.8
222.962	593.2
223.34	598.6
223.717	599.6
224.095	598.6
224.473	597.8
224.851	594.6
225.229	591.2
225.607	620.4
225.985	594
226.363	601.2
226.741	595.6
227.119	596.8
227.497	608.8
227.876	586.6
228.254	604.2
228.633	596.4
229.011	600.8
229.39	596.8
229.769	605.6
230.148	606.2
230.527	616.8
230.905	602
231.284	601.2
231.664	589.6
232.043	614.4
232.422	603.8
232.801	589
233.181	603.6
233.56	599
233.94	597.8
234.319	586.8
234.699	604.6
235.079	639.8
235.458	636.8
235.838	618
236.218	592
236.598	591.4
236.978	597.2
237.358	595
237.738	588.6
238.119	602.6
238.499	592.4
238.88	592.8
239.26	610.6
239.641	588.8
240.021	595.6
240.402	597.2
240.783	589.6
241.163	602.4
241.544	600.8
241.925	604.2
242.306	615.4
242.687	600.8
243.069	596.8
243.45	615.4
243.831	596.4
244.212	601.2
244.594	631.8
244.975	613.6
245.357	597.6
245.739	590.6
246.12	598.2
246.502	607.4
246.884	591.8
247.266	595.6
247.648	601.6
248.03	614.4
248.412	608.4
248.794	601.2
249.176	597.6
249.559	602.8
249.941	600.2
250.323	592.4
250.706	589
251.089	604.4
251.471	607.4
251.854	603.8
252.237	594.6
252.62	604.6
253.002	606.2
253.385	597.6
253.769	602.6
254.152	604
254.535	603.2
254.918	589.4
255.301	592.6
255.685	599.2
256.068	586
256.452	619.2
256.835	605
257.219	608
257.603	612.8
257.986	589.2
258.37	608.4
258.754	592.2
259.138	596.2
259.522	610
259.906	599.8
260.29	604.8
260.675	599.6
261.059	601.8
261.443	594.4
261.828	608.2
262.212	607.6
262.597	590.6
262.981	594.8
263.366	605.2
263.751	599.6
264.136	592.6
264.521	595.2
264.906	592.4
265.291	620
265.676	588.8
266.061	607.2
266.446	612.8
266.831	593
267.217	616.4
267.602	607.4
267.987	596.8
268.373	598.2
268.759	611.8
269.144	600.6
269.53	588.8
269.916	591.8
270.302	591.4
270.688	602.2
271.074	596
271.46	600.2
271.846	615
272.232	600.8
272.618	589.4
273.004	593.6
273.391	606.6
273.777	609.2
274.164	594
274.55	605.8
274.937	609
275.324	584
275.71	603.2
276.097	603.6
276.484	592.6
276.871	598.2
277.258	610.6
277.645	583.4
278.032	600.2
278.419	598.8
278.807	598.4
279.194	595
279.581	596.4
279.969	608
280.356	602.6
280.744	593
281.131	618.6
281.519	608.6
281.907	588
282.295	598.8
282.682	610
283.07	600.8
283.458	599.2
283.846	614.8
284.235	607.8
284.623	605.2
285.011	595.4
285.399	602.2
285.788	599.8
286.176	592.8
286.565	605.4
286.953	595
287.342	590.6
287.731	589.8
288.119	592.4
288.508	596.4
288.897	600.4
289.286	579.4
289.675	594.6
290.064	603.2
290.453	599.4
290.821	595.8
291.21	609.2
291.599	597.6
291.989	596
292.378	608
292.768	615.8
293.157	596.8
293.547	604.2
293.936	591.6
294.326	593.4
294.716	603.2
295.106	599.4
295.496	605.2
295.886	601.6
296.276	592.6
296.666	583.2
297.056	590.6
297.446	593
297.836	607.2
298.227	595
298.617	601.6
299.008	612.2
299.398	594.4
299.789	588.4
300.179	595.2
300.57	607.8
300.961	591.4
301.352	597.6
301.742	598.8
302.133	599.6
302.524	596
302.915	596.8
303.307	592.4
303.698	603.2
304.089	608.6
304.48	596.8
304.872	603.6
305.263	597.6
305.655	591.4
306.046	606.4
306.438	604.8
306.829	594
307.221	609.8
307.613	597
308.005	606.8
308.397	613.4
308.789	606.6
309.181	620.8
309.573	611
309.965	620
310.357	595.4
310.749	610
311.142	600.8
311.534	585.6
311.926	608
312.319	597.6
312.711	601.8
313.104	616.8
313.497	590
313.889	637.6
314.282	611.6
314.675	624.2
315.068	601.6
315.461	606
315.854	628.4
316.247	607.4
316.64	602.6
317.033	604.6
317.405	604.2
317.798	595.2
318.192	593.6
318.585	588.6
318.979	597.8
319.372	595.2
319.766	594
320.16	601
320.553	617
320.947	613.8
321.341	591
321.735	596.8
322.129	581.2
322.523	618.4
322.917	584.8
323.311	611
323.705	596
324.099	598.4
324.494	599.8
324.888	607.4
325.282	595.6
325.677	612.2
326.071	605.8
326.466	612
326.861	599.4
327.255	605.4
327.65	612.6
328.045	619.6
328.44	602
328.835	595.4
329.23	606.4
329.625	617.2
330.02	597.2
330.415	621.8
330.81	604.2
331.206	601
331.601	596
331.996	612
332.37	614.2
332.766	595.4
333.161	625.2
333.557	596.2
333.953	600.8
334.348	792.4
334.744	599.8
335.14	591
335.536	598.2
335.932	604.6
336.328	598
336.724	612.4
337.12	599
337.516	607.4
337.913	592.6
338.309	609
338.705	598.8
339.102	615.6
339.498	595.8
339.895	609.2
340.291	595.8
340.688	610
341.085	589.8
341.481	592.2
341.878	606
342.275	616.2
342.672	596
343.069	591.8
343.466	589.6
343.842	607.4
344.239	588.6
344.636	592.2
345.033	588.4
345.431	593.8
345.828	602.2
346.225	593.6
346.623	625
347.02	603.6
347.418	607.6
347.816	614.2
348.213	587.6
348.611	609.2
349.009	597.2
349.407	609.6
349.805	588
350.203	598.8
350.601	611.4
350.999	597.2
351.397	644
351.795	592
352.193	612.6
352.57	600.8
352.969	610.6
353.367	591.8
353.766	583.6
354.164	596.2
354.563	606.8
354.961	594.6
355.36	591.8
355.759	594
356.158	583.4
356.557	584.6
356.956	586
357.355	589.4
357.754	595.4
358.153	604.2
358.552	614.6
358.951	593.2
359.35	607.6
359.75	591
360.149	596.6
360.527	581.4
360.926	590.6
361.326	591
361.726	592.4
362.125	588.6
362.525	610.2
362.925	599
363.325	599.6
363.724	589.4
364.124	589.8
364.524	588.4
364.924	595.4
365.324	601.2
365.725	576
366.125	591
366.525	591
366.904	585
367.304	578.4
367.705	610.4
368.105	601.8
368.506	594
368.906	594.2
369.307	585.6
369.708	594.6
370.108	581.2
370.509	599.8
370.91	585.2
371.311	584.4
371.712	588.8
372.113	579.4
372.514	586.2
372.894	587.6
373.295	581.6
373.696	604.4
374.097	594.6
374.499	616.2
374.9	592
375.301	588.8
375.703	592.6
376.105	579.4
376.506	589.8
376.908	593.2
377.309	595.2
377.711	586.4
378.113	589.4
378.493	592.6
378.895	589.8
379.297	600.2
379.699	588
380.102	596.2
380.504	594.2
380.906	587
381.308	608.6
381.71	596
382.113	597.6
382.515	588.6
382.918	592.6
383.299	591.4
383.701	604.8
384.104	595.8
384.507	573.6
384.909	589.8
385.312	579
385.715	585.2
386.118	593.2
386.521	581.6
386.924	597.2
387.327	582.4
387.709	576.6
388.112	576.2
388.515	586.6
388.918	583.8
389.322	597.6
389.725	579.6
390.129	606.8
390.532	594.2
390.936	580.8
391.339	583.6
391.743	587.4
392.125	576
392.529	593
392.933	591.8
393.337	587
393.74	585.6
394.144	584.8
394.548	583.8
394.953	586
395.357	602.2
395.761	587.6
396.144	594.8
396.548	587.4
396.952	594.4
397.357	595.6
397.761	587
398.166	584.6
398.57	584.6
398.975	582.6
399.379	585
399.763	635
400.168	586.6
400.572	580.2
400.977	588.4
401.382	605.4
401.787	597
402.192	609.4
402.597	595.2
403.002	583.4
403.386	598.2
403.791	603.4
404.197	592
404.602	595
405.007	587.4
405.413	586.8
405.818	595.4
406.224	579
406.608	589.8
407.014	586
407.42	600.6
407.825	588
408.231	606.6
408.637	595
409.043	600.2
409.449	593.6
409.834	589.4
410.24	599
410.646	602.2
411.052	598.4
411.458	591.2
411.865	592
412.271	597
412.677	590
413.062	596.2
413.469	579.4
413.875	607.4
414.282	601
414.689	597.2
415.095	595.6
415.502	582
415.888	588
416.294	574.8
416.701	622.2
417.108	587.6
417.515	607.2
417.923	591.4
418.33	607.4
418.715	596.6
419.123	590.8
419.53	593.4
419.937	594.4
420.345	604.2
420.752	589.4
421.16	606.2
421.546	593.8
421.953	602.4
422.361	586
422.769	589.8
423.177	594.6
423.585	611.2
423.992	609
424.379	595.2
424.787	603.8
425.195	614.2
425.603	589.8
426.011	601.4
426.419	606
426.806	593.8
427.214	608.4
427.623	603.8
428.031	614.6
428.44	604.6
428.848	606.6
429.235	614
429.644	598.4
430.053	603.8
430.461	621
430.87	629.8
431.279	612.2
431.666	606.4
432.075	621.8
432.484	625.4
432.893	620.4
433.302	646.6
433.711	665.6
434.099	632.8
434.508	650.2
434.918	650.4
435.327	660
435.737	667.2
436.125	666.2
436.534	674.2
436.944	681.8
437.353	684.4
437.763	705.2
438.173	688.8
438.561	712.4
438.971	686.4
439.381	708.6
439.791	715.8
440.201	711
440.589	734.4
440.999	746.4
441.409	745.8
441.819	728.6
442.23	752.8
442.619	772.4
443.029	748.8
443.439	755.2
443.85	773.2
444.26	779.8
444.649	770.2
445.06	770.4
445.471	768.8
445.881	775.2
446.292	793.6
446.682	793.2
447.092	780
447.503	827
447.914	798.8
448.325	786.2
448.715	799.8
449.126	792.6
449.537	795
449.948	801.6
450.338	801.8
450.75	803.4
451.161	809
451.572	805.6
451.984	793.4
452.374	799.8
452.786	810.4
453.197	817.4
453.609	815.4
453.999	795.2
454.411	802.6
454.823	821.4
455.235	824.8
455.647	809.2
456.037	811.4
456.449	803.2
456.862	814.8
457.274	813.4
457.665	806
458.077	821.8
458.489	852.4
458.902	819
459.293	820.6
459.705	818.2
460.118	809.8
460.53	815.6
460.921	818.6
461.334	821
461.747	817.8
462.16	824
462.551	842.4
462.964	824.2
463.377	811.2
463.79	819.4
464.182	820.2
464.595	813.2
465.008	817.6
465.421	826.2
465.813	816.8
466.226	816.8
466.64	810.2
467.053	848.8
467.445	823.8
467.859	825.2
468.272	821.4
468.686	836.4
469.078	818.8
469.492	811
469.906	817.6
470.298	821.8
470.712	816.2
471.126	851.4
471.54	808.4
471.933	808.8
472.347	814.2
472.761	808.6
473.175	811.8
473.568	819.2
473.982	800.8
474.397	821.6
474.79	815.2
475.204	822.2
475.619	799.4
476.033	815.2
476.426	814
476.841	806.2
477.256	826.6
477.649	787
478.064	793.8
478.479	792
478.872	803.4
479.287	783.2
479.702	790.8
480.118	806.2
480.511	799.4
480.927	805.2
481.342	789.6
481.736	801.6
482.151	790
482.566	799
482.96	793.8
483.376	797
483.792	790.6
484.186	781.4
484.602	789.4
485.017	791.4
485.412	788.6
485.827	794.4
486.243	797.6
486.638	797.2
487.054	788.8
487.47	792.8
487.865	765.8
488.281	781
488.697	775.2
489.092	776.6
489.508	756.6
489.925	779.6
490.32	763.6
490.736	769.6
491.153	773
491.548	770.8
491.964	773.4
492.381	757
492.776	766
493.193	761.6
493.61	768
494.006	771.2
494.422	768.8
494.84	751.8
495.235	763.4
495.652	747.2
496.069	754.8
496.465	743.2
496.883	741
497.3	764.2
497.696	749.6
498.113	758.6
498.509	738.6
498.927	735.4
499.344	738.6
499.741	735.8
500.158	742.2
500.576	738
500.973	734.2
501.39	723.6
501.787	727.2
502.205	733
502.623	728.4
503.02	721.4
503.438	722.8
503.856	721
504.253	731
504.671	720.8
505.068	719.8
505.486	722.2
505.905	736.4
506.302	710.4
506.72	728.6
507.118	710.8
507.536	719
507.955	722.6
508.352	706.2
508.771	721.8
509.169	714.2
509.587	705.6
510.006	708.2
510.404	694
510.823	697
511.221	697.2
511.64	700.2
512.038	702.4
512.457	702.4
512.877	702
513.275	696.6
513.694	697.2
514.092	690.6
514.512	692.2
514.91	692.8
515.33	692.4
515.749	698.4
516.148	695
516.568	695.6
516.966	694.8
517.386	679.6
517.785	686.8
518.205	674.6
518.603	679.2
519.024	680.4
519.444	681.6
519.843	683.8
520.263	680
520.662	683.4
521.082	677
521.481	678.6
521.902	666.4
522.301	680.6
522.722	675.8
523.121	668.2
523.542	669.8
523.963	673.2
524.362	675.8
524.783	669.2
525.183	667.8
525.604	667
526.003	659
526.425	660.8
526.824	667.4
527.246	668.6
527.646	659.2
528.067	666.6
528.467	665.2
528.888	663.8
529.289	654.2
529.71	665.6
530.11	651.8
530.532	657
530.932	657.8
531.354	641.2
531.755	685.6
532.176	665.6
532.577	654
532.999	650.2
533.4	642.6
533.822	655.6
534.223	658.4
534.645	655
535.046	642
535.468	647.8
535.869	656.8
536.292	644
536.693	669.2
537.115	648.8
537.516	648.4
537.939	642.4
538.34	663.2
538.742	651.2
539.165	643.8
539.566	638.8
539.989	628
540.391	640.2
540.814	640
541.216	635.6
541.639	639.8
542.041	641.4
542.464	636
542.866	638.8
543.268	632.6
543.691	639.4
544.093	645.8
544.517	653.6
544.919	629.8
545.343	659.8
545.745	621.8
546.147	628.6
546.571	626.8
546.974	621
547.398	630.2
547.8	640
548.224	632
548.627	620.6
549.03	638.6
549.454	621.2
549.857	622
550.281	626.6
550.684	622.8
551.087	624.8
551.512	629.4
551.915	626.6
552.34	624.8
552.743	616
553.146	621.6
553.571	620.8
553.975	639.8
554.399	612
554.803	666.8
555.207	619.4
555.632	611.6
556.036	630.6
556.461	617.4
556.865	615.8
557.268	607
557.694	621.2
558.098	622
558.502	612.6
558.927	602.2
559.332	604.8
559.736	614.4
560.162	610.6
560.566	621.6
560.992	614.8
561.396	615
561.801	613
562.227	605.4
562.631	609
563.036	606.2
563.462	621
563.867	612.6
564.272	596.8
564.698	606.2
565.103	600.4
565.508	631.2
565.935	605
566.34	604.6
566.745	616.2
567.172	603.6
567.577	613.4
567.982	612.6
568.409	599.8
568.815	597.6
569.22	605
569.626	608.4
570.053	590.6
570.459	608.8
570.865	608.2
571.292	604.6
571.698	600.4
572.104	596.6
572.531	598
572.937	616.8
573.343	601.8
573.75	597.2
574.177	611.2
574.583	604.8
574.99	603.8
575.396	611
575.824	600.8
576.231	603.4
576.637	597.2
577.065	624.2
577.472	590.8
577.879	603.2
578.286	610.6
578.714	589.2
579.121	596.6
579.528	598.2
579.935	609.4
580.364	597.2
580.771	584
581.178	591
581.585	589.2
582.014	600.8
582.421	590.2
582.829	592.8
583.236	598.6
583.644	595.4
584.073	594.4
584.481	595.2
584.889	592.2
585.296	599.2
585.726	588.6
586.134	590
586.542	593
586.95	600.4
587.358	582.4
587.787	593
588.196	599.4
588.604	594.4
589.012	584.6
589.421	586.2
589.851	584.6
590.259	597.2
590.668	590.2
591.076	621
591.485	584.4
591.894	593.6
592.324	601.4
592.733	600.6
593.142	584.6
593.551	589.6
593.96	589
594.369	576.6
594.8	587
595.209	590.2
595.618	578
596.028	576.8
596.437	579.6
596.847	590
597.256	583.4
597.687	587
598.097	585.6
598.507	582
598.917	583.4
599.327	588.4
599.736	595.2
600.146	590.6
600.556	591
600.988	592.4
601.398	584.6
601.808	600.2
602.219	577.4
602.629	582
603.039	594
603.45	614
603.86	586
604.271	601.2
604.703	584.2
605.114	591.4
605.525	589.6
605.935	592.6
606.346	606.8
606.757	590.8
607.168	583.4
607.579	572.4
607.99	595
608.402	589.4
608.813	585.2
609.224	577.8
609.636	579.4
610.047	577.4
610.48	586.6
610.892	596
611.303	593.6
611.715	587.6
612.127	592
612.539	588.6
612.95	582.2
613.362	578.4
613.774	579.6
614.186	587
614.599	586.4
615.011	597.6
615.423	587
615.835	584.2
616.248	582
616.66	591.8
617.073	575.8
617.485	583.6
617.898	594.6
618.311	589.4
618.723	580.8
619.136	612.8
619.549	594.4
619.962	607.8
620.375	585.2
620.788	590.8
621.201	581.6
621.614	597
622.028	586.2
622.441	591
622.854	591.4
623.268	583.6
623.681	585.6
624.095	586.6
624.509	597.2
624.922	594.4
625.336	578
625.728	580.2
626.142	597.6
626.556	601.2
626.97	591.4
627.384	573.4
627.799	584
628.213	596.8
628.627	580.8
629.041	587.4
629.456	586.2
629.87	590.6
630.285	597
630.699	592.2
631.093	583
631.507	592.8
631.922	583
632.337	598
632.752	584.4
633.167	588.6
633.582	578.8
633.997	574.4
634.412	580.4
634.806	584
635.221	577
635.637	594.2
636.052	571.4
636.468	588.2
636.883	601.2
637.299	580.2
637.715	570.8
638.109	591.2
638.525	572.4
638.941	598.6
639.357	580.4
639.773	597.6
640.189	586
640.584	580
641	588.8
641.416	573
641.832	583.4
642.249	578
642.665	579.8
643.06	589.6
643.477	592.8
643.894	566
644.31	580.4
644.727	580.6
645.123	587.2
645.54	572.8
645.957	588.8
646.374	596.4
646.77	583.6
647.187	608.4
647.604	586.2
648.021	566
648.439	576.8
648.835	583.4
649.252	586.4
649.67	578.4
650.088	585.8
650.484	577.6
650.902	589.6
651.32	580.8
651.738	581.8
652.134	583.2
652.552	597.2
652.971	587.2
653.389	576.4
653.786	594
654.204	595.4
654.622	575
655.019	581.4
655.438	578.2
655.857	590.4
656.275	574.8
656.673	567
657.091	584.6
657.51	572.2
657.908	585.4
658.327	590.6
658.746	571.2
659.144	579.4
659.563	589.4
659.982	578.2
660.38	562
660.8	583.8
661.219	579.8
661.617	576
662.037	585.2
662.457	589
662.855	556.8
663.275	601
663.695	567.8
664.094	572.4
664.514	578.2
664.934	567.6
665.333	579.2
665.753	567.2
666.152	574.8
666.572	571.4
666.993	586.4
667.392	577.2
667.812	572
668.212	574.4
668.632	572.2
669.053	568.2
669.453	576.6
669.874	582.4
670.273	578
670.694	566.6
671.116	585
671.515	577.4
671.937	576
672.337	574
672.758	562.2
673.158	586.6
673.58	570.2
673.98	581
674.402	592.4
674.824	581
675.224	570.4
675.646	564.8
676.047	569.2
676.469	579.8
676.869	584.2
677.292	572.2
677.693	570.8
678.115	569.4
678.516	577.4
678.939	571.8
679.34	579.6
679.762	584.6
680.164	574.4
680.586	565
680.988	576.6
681.411	589.4
681.812	573.4
682.236	561.8
682.637	557.8
683.061	559.2
683.462	569.6
683.864	570.6
684.288	574.6
684.69	561.8
685.114	580.4
685.516	572.8
685.94	567.4
686.342	580.6
686.766	571
687.168	566
687.571	590.6
687.995	575.4
688.398	563.6
688.822	566.6
689.225	586.6
689.628	590.4
690.052	570.2
690.456	574.4
690.88	577.4
691.284	565
691.687	570.4
692.112	559.2
692.515	560.6
692.919	575
693.344	570.2
693.747	567.6
694.173	564.8
694.577	579.2
694.98	565
695.406	571.8
695.81	574.8
696.214	576
696.64	576.8
697.044	568.8
697.448	571.2
697.874	571.2
698.279	579.4
698.684	565.4
699.11	567.6
699.514	572.2
699.919	573.6
700.324	566.6
700.75	572.4
701.156	578.4
701.561	588.6
701.987	576.8
702.393	580.8
702.798	580.8
703.203	569.8
703.63	569
704.036	560.4
704.442	570
704.847	564.8
705.274	575.8
705.68	565
706.086	574
706.492	562.6
706.92	572.6
707.326	589.4
707.732	566.8
708.139	565.6
708.545	562.4
708.973	567.4
709.38	573.6
709.786	565
710.193	586.4
710.6	573.2
711.028	562.2
711.435	577
711.842	564.4
712.249	571
712.656	571.6
713.064	577.2
713.492	561.8
713.9	568.2
714.307	572.4
714.715	569.2
715.123	573.8
715.53	573
715.938	578
716.367	575.8
716.775	561.2
717.184	564.6
717.592	570.4
718	584.8
718.408	598
718.816	607.8
719.225	579.4
719.633	576.6
720.042	572
720.472	571
720.881	583.6
721.29	578.6
721.699	562.2
722.108	570.6
722.517	576.4
722.926	568.8
723.335	586.6
723.744	573
724.154	573.4
724.563	574.2
724.973	572.6
725.382	574.8
725.792	564.6
726.202	576.2
726.612	581.8
727.022	567.6
727.432	567
779.813	577.4
780.223	616.2
780.634	571.2
781.044	567.6
781.454	576.6
781.865	581.2
782.276	571
782.686	580.4
783.097	577.8
783.508	570.2
783.919	568.8
784.33	584.6
784.741	583
785.152	560.4
785.563	555
785.974	566.8
786.386	583.8
786.776	571.2
787.188	573
787.599	559.6
788.011	577.4
788.423	571
788.835	563
789.247	561.8
789.659	568
790.071	571.6
790.483	602.8
790.874	564
791.286	578.2
791.699	560.8
792.111	573.4
792.524	571
792.937	572.4
793.349	568.8
793.741	568.6
794.154	567.6
794.567	582
794.98	569.4
795.393	553.4
795.785	578.2
796.198	565.8
796.612	574.8
797.026	567.6
797.439	558.6
797.831	571.2
798.245	563
798.659	569
799.073	564
799.487	563.8
799.88	569.8
800.294	568.6
800.708	573.6
801.123	569.6
801.516	591
801.93	559
802.345	553.2
802.76	571.4
803.153	578
803.568	576.8
803.983	575.4
804.377	574
804.792	561
805.207	553.8
805.601	573
806.016	599.6
806.432	562.2
806.826	595.6
807.242	580.8
807.658	573
808.052	568
808.468	562.4
808.884	556
809.279	565
809.695	572.8
810.111	584
810.506	574.6
810.922	581
811.339	565.2
811.734	578.4
812.151	556.8
812.546	562.6
812.963	562.2
813.38	566.6
813.776	569.4
814.193	580.8
814.589	558.8
815.006	565.8
815.402	560
815.82	559.4
816.237	572
816.633	567.4
817.051	566
817.448	569
817.866	569
818.262	583.4
818.68	568.4
819.077	571.2
819.495	564.8
819.892	605.8
820.311	558
820.708	567.4
821.127	570
821.524	571.6
821.943	577.8
822.34	585.8
822.759	570
823.157	567
823.576	576
823.974	570.4
824.393	609.4
824.791	570.6
825.189	556
825.609	566
826.007	561
826.427	551.6
826.826	566.2
827.246	569.2
827.644	561
828.043	581.2
828.463	560.4
828.862	568.2
829.261	572
829.682	559.6
830.081	571
830.502	559.2
830.901	566.4
831.301	576.2
831.722	554
832.121	571.2
832.521	557.6
832.943	563
833.342	563.4
833.742	560
834.164	564
834.564	558.6
834.965	564.6
835.386	569.6
835.787	560.6
836.188	566
836.588	561
837.01	564.2
837.411	558.2
837.812	565.6
838.213	572.2
838.636	560
839.037	624.2
839.438	566.2
839.84	573
840.263	571.2
840.664	565.8
841.066	570.4
841.468	571.8
841.891	563
842.293	579.2
842.695	571.2
843.098	574.4
843.5	565.8
843.902	568
844.326	570.8
844.729	567
845.131	575.4
845.534	574.2
845.937	577.8
846.34	583.4
846.764	564.6
847.167	571.8
847.571	563.6
847.974	564.6
848.377	563.2
848.781	609.2
849.184	581
849.588	561.6
849.992	566.8
850.396	576.8
850.821	587.2
851.225	566.8
851.63	575.6
852.034	576.4
852.438	565
852.843	637.6
853.247	561.6
853.652	561.8
854.057	584.8
854.462	573.6
854.867	579.6
855.272	594.8
855.677	566.8
856.082	562.2
856.487	560.2
856.893	573.6
857.298	561.4
857.704	561
858.11	573
858.516	572.8
858.922	570.4
859.328	575.2
859.734	566.2
860.14	575.2
860.525	569
860.931	560.8
861.338	563.8
861.745	572.2
862.151	572.2
862.558	568.2
862.965	564.8
863.372	567.2
863.779	561.6
864.186	576.4
864.572	561.2
864.98	586
865.387	595.6
865.795	568.4
866.203	569
866.61	559.2
867.018	577.8
867.405	570.4
867.813	560.8
868.221	569.2
868.63	566
869.038	571.2
869.425	598
869.834	576.8
870.243	561.2
870.652	567.8
871.039	565.8
871.448	564.6
871.857	569.6
872.266	571.8
872.654	574.4
873.064	568.2
873.473	574
873.883	561.6
874.271	566.2
874.681	579.4
875.091	553.8
875.48	586.6
875.89	582.2
876.3	560.8
876.689	556.2
877.1	565.8
877.51	563.4
877.9	578
878.31	564.4
878.721	587
879.111	573.4
879.522	569.4
879.933	560
880.323	559.8
880.734	565.2
881.125	570
881.536	567.6
881.948	560.4
882.338	562
882.75	569.8
883.141	567.8
883.553	576.6
883.944	585.4
884.356	570
884.769	566.2
885.16	569.4
885.573	561.8
885.964	556.2
886.377	572.4
886.768	563
887.181	562.8
887.573	563.4
887.987	569
888.378	569
888.792	580.8
889.184	612
889.598	560
889.99	568
890.383	561.6
890.797	562.8
891.19	578.8
891.604	556
891.997	558.4
892.411	564
892.805	558.6
893.198	558
893.613	552.8
894.006	569.8
894.421	561.2
894.815	562.4
895.209	569.4
895.624	597.2
896.018	586.8
896.412	556.8
896.828	564
897.222	563.4
897.617	557.4
898.033	581.4
898.427	570
898.822	571.4
899.239	557.6
899.634	551.2
900.029	574.8
900.424	552
900.841	559.8
901.236	573
901.632	574.4
902.027	623.6
902.445	565.2
902.841	557.2
903.237	557.4
903.633	569
904.05	570.6
904.447	563.8
904.843	573.2
905.24	562.8
905.636	555.2
906.033	562.4
906.451	572.2
906.848	557
907.246	560.2
907.643	562
908.04	568.6
908.438	570.6
908.835	565.8
909.254	559.6
909.652	569.4
910.05	559.8
910.448	558.6
910.846	563.8
911.244	552.4
911.643	566.4
912.041	560.2
912.44	584
912.839	554.8
913.237	563
913.636	556.8
914.035	566.6
914.434	563.6
914.834	576.8
915.233	572.8
915.633	568.4
916.032	565.8
916.432	563.4
916.832	572.2
917.232	560
917.632	550.2
918.032	574.2
918.432	566.4
918.833	568.6
919.233	556.2
919.634	556.2
920.035	570
920.436	557.6
920.837	560.8
921.238	561.4
921.639	559.8
922.019	565
922.42	565
922.822	567
923.224	553
923.625	558.4
924.027	563.4
924.429	579
924.81	555.2
925.212	562
925.615	559
926.017	549.6
926.42	565.2
926.801	562.2
927.204	559
927.607	567.8
928.01	578.2
928.413	567
928.795	555.6
929.199	560.2
929.602	566.6
930.006	557.6
930.388	560
930.792	563
931.196	562.2
931.579	589.8
931.983	551
932.388	598.8
932.771	562.6
933.176	552.8
933.58	569
933.964	568.4
934.369	553.6
934.774	563.4
935.158	568.6
935.563	565.2
935.947	570.6
936.353	573.2
936.759	561.2
937.143	568.2
937.549	563.8
937.934	567.6
938.34	579.4
938.746	565.4
939.131	568.2
939.538	553.2
939.923	569.4
940.33	562.8
940.716	566.2
941.123	565.4
941.508	568.2
941.916	580
942.302	566.8
942.709	555.8
943.096	551
943.503	567.6
943.89	561
944.298	558.8
944.685	582.8
945.072	556.8
945.48	572.8
945.867	557.8
946.276	555
946.663	577.4
947.051	577.2
947.46	574.2
947.848	562.6
948.257	559.2
948.645	560.6
949.033	560
949.443	550.8
949.831	600.8
950.22	547.2
950.63	560.8
951.018	589
951.407	561.8
951.796	558.6
952.207	568.8
952.596	575.8
952.985	554.2
953.375	598.6
953.786	562.8
954.176	562.8
954.566	570.4
954.956	554.2
955.367	557.6
955.758	589.6
956.148	557.6
956.539	575
956.929	561.8
957.341	559.6
957.732	554
958.123	571
958.515	555.2
958.906	574.6
959.297	565
959.689	563
960.102	554
960.494	570
960.886	563.4
961.278	560
961.67	580.8
962.062	594
962.455	558.4
962.847	550.2
963.24	563.2
963.633	560.8
964.026	551.2
964.419	572.6
964.812	570.8
965.206	564
965.599	566.4
965.993	561.2
966.386	561
966.78	574.2
967.174	569.2
967.569	562.2
967.963	548.4
968.357	554.8
968.752	560
969.146	561.2
969.541	558
969.936	567
970.331	564.2
970.705	560.4
971.1	563.2
971.496	572.8
971.892	555.2
972.287	563.8
972.683	563.8
973.079	568.6
973.454	572.4
973.85	564
974.247	567.8
974.643	583.2
975.04	575.4
975.415	567.4
975.812	552.2
976.209	564.2
976.607	551.8
976.982	569.2
977.38	581.4
977.778	564.4
978.175	563.6
978.552	569
978.95	572
979.348	566.4
979.725	601.4
980.123	561
980.522	560.4
980.899	559.4
981.298	568
981.697	558
982.075	560.4
982.474	556.2
982.852	567
983.251	573.6
983.651	561.4
984.029	562.2
984.429	559
984.808	561
985.208	562.4
985.609	551.6
985.987	552
986.388	563
986.768	561
987.168	555.6
987.548	562.4
987.949	568
988.329	555.8
988.731	548.2
989.111	563.8
989.491	565.6
989.893	561.4
990.273	573.6
990.676	555.6
991.057	553
991.459	554.2
991.84	553.4
992.221	560.2
992.624	576
993.006	567
993.388	554.4
993.791	570.4
994.173	561.6
994.576	586.6
994.959	555.6
995.341	551.8
995.724	559.2
996.128	560
996.511	555.8
996.894	554.4
997.298	550.2
997.681	568
998.065	555
998.448	551.8
998.854	571
999.237	553.8
999.621	569.8
1000.01	578.4
1000.39	559.2
1000.8	563.2
1001.18	563.8
1001.56	559.6
1001.95	557.4
1002.33	561
1002.72	556.2
1003.13	554.2
1003.51	553.8
1003.9	558.6
1004.28	569.8
1004.67	561.2
1005.06	561
1005.44	586
1005.83	555.2
1006.21	556.6
1006.6	551
1006.99	565
1007.37	567
1007.76	563.6
1060.12	555.2
1060.51	557.8
1060.89	570.6
1061.28	574.4
1061.67	575.2
1062.06	566
1062.45	567
1062.83	554.2
1063.22	565.2
1063.61	593.6
1064	567.4
1064.39	558
1064.78	562.6
1065.14	569.8
1065.53	558.8
1065.92	556.6
1066.31	558.8
1066.7	565.8
1067.09	563.2
1067.46	563.6
1067.85	549.2
1068.24	546
1068.63	561.6
1069.02	552
1069.39	564
1069.78	548.6
1070.17	548
1070.57	552.2
1070.93	561.8
1071.33	551
1071.72	571
1072.11	550.2
1072.48	557
1072.87	560.2
1073.26	560.4
1073.64	558.6
1074.03	552.2
1074.4	552.4
1074.79	554.2
1075.19	554.6
1075.56	557.6
1075.95	559.4
1076.34	549.8
1076.72	565.8
1077.11	568
1077.48	567.6
1077.88	563.6
1078.25	560.2
1078.64	566.6
1079.02	557.4
1079.41	564.2
1079.78	556
1080.18	551
1080.55	607.2
1080.95	557.2
1081.32	562.2
1081.72	557.6
1082.09	566.6
1082.49	553
1082.86	560.2
1083.24	549.8
1083.63	550.4
1084.01	554
1084.38	559.6
1084.78	556.6
1085.16	561
1085.55	568.6
1085.93	569.4
1086.31	548.8
1086.7	583.4
1087.08	565.2
1087.46	562.2
1087.83	546
1088.23	572.4
1088.61	555.6
1088.99	562.6
1089.36	562.8
1089.76	562
1090.14	560.4
1090.52	563.4
1090.9	559.2
1091.27	570.6
1091.67	581.2
1092.05	567.2
1092.43	561.8
1092.81	561.2
1093.19	566.4
1093.57	557
1093.95	551.6
1094.35	568
1094.73	571.6
1095.11	557.2
1095.49	557.2
1095.87	560
1096.25	566.6
1096.63	569.2
1097.01	555.6
1097.39	571
1097.77	558.6
1098.15	558.2
1098.53	550.6
1098.91	556.8
1099.29	561.2
1099.68	574.6
1100.06	572.4
1100.44	560.6
1100.82	564.4
1101.18	564.8
1101.56	560.8
1101.95	556.2
1102.33	551.6
1102.71	559.6
1103.1	549.2
1103.48	548.2
1103.86	551.4
1104.22	562.4
1104.61	557.8
1104.99	557.4
1105.38	553.4
1105.76	568.8
1106.12	561
1106.51	591.6
1106.89	559.8
1107.26	563.6
1107.64	564.6
1108.03	558.4
1108.41	557.2
1108.78	560
1109.16	559.6
1109.55	566.8
1109.91	555.4
1110.3	550
1110.69	571.8
1111.05	558.2
1111.44	555.4
1111.8	559
1112.19	561.6
1112.58	567
1112.94	558
1113.33	547.4
1113.7	557.4
1114.09	554.4
1114.45	560.8
1114.84	562.8
1115.21	561.2
1115.6	554.6
1115.96	559.2
1116.35	563.4
1116.72	552.8
1117.11	566.2
1117.48	557.6
1117.85	558.6
1118.24	574.4
1118.6	560.4
1118.99	550.4
1119.36	562.8
1119.73	561.4
1120.12	562
1120.49	550.4
1120.86	568
1121.25	557.2
1121.62	549.8
1121.99	561.2
1122.38	565.4
1122.76	560.2
1123.13	554.2
1123.5	564.6
1123.89	564.2
1124.26	558.2
1124.63	559.2
1125	561.6
1125.4	558.8
1125.77	552
1126.14	550.4
1126.51	554.6
1126.88	560.6
1127.26	555.2
1127.63	545.2
1128.02	560.6
1128.4	549.6
1128.77	561.2
1129.14	562.8
1129.52	558.6
1129.89	558.6
1130.26	553.2
1130.64	548.2
1131.01	543.8
