#lambda/nm	C1
208.295	538.6
208.67	479.8
209.045	444.2
209.419	446.2
209.794	612.2
210.169	591.4
210.544	709.2
210.919	606.8
211.295	592.4
211.67	604.4
212.045	604.8
212.421	607.2
212.796	639.4
213.172	602
213.547	594.2
213.923	598.4
214.299	600.8
214.675	614.6
215.051	606.8
215.427	602.8
215.803	621.8
216.179	607.2
216.555	598.4
216.932	604.2
217.308	606.4
217.684	602
218.061	604
218.438	609.6
218.814	598.8
219.191	603.6
219.568	603.8
219.945	607
220.322	598
220.699	612.6
221.076	609.4
221.453	608
221.83	599.4
222.208	595
222.585	597.2
222.962	603
223.34	594.2
223.717	604
224.095	600.2
224.473	613
224.851	598.8
225.229	598.2
225.607	611.2
225.985	589.2
226.363	604.8
226.741	607
227.119	603
227.497	618.2
227.876	593.6
228.254	611.6
228.633	614
229.011	608.8
229.39	619.8
229.769	609
230.148	610.8
230.527	621.8
230.905	608
231.284	608.2
231.664	601.8
232.043	608.4
232.422	602.2
232.801	604
233.181	610.2
233.56	607.2
233.94	602
234.319	594
234.699	596.8
235.079	639.6
235.458	637
235.838	622.2
236.218	599.4
236.598	590.4
236.978	604.6
237.358	596.2
237.738	603.6
238.119	615.4
238.499	595
238.88	612.4
239.26	617.4
239.641	593.4
240.021	603.4
240.402	603.4
240.783	599.6
241.163	604.2
241.544	614.8
241.925	605.8
242.306	608
242.687	613.6
243.069	600
243.45	613.4
243.831	598.4
244.212	604.2
244.594	630.4
244.975	607.8
245.357	609
245.739	602.8
246.12	603.4
246.502	615.2
246.884	603
247.266	598.4
247.648	609
248.03	622.8
248.412	608
248.794	608
249.176	604
249.559	617
249.941	596.8
250.323	599.2
250.706	600.2
251.089	603.8
251.471	615.2
251.854	608.4
252.237	602.2
252.62	616.6
253.002	602.2
253.385	602.2
253.769	609.8
254.152	601
254.535	609.6
254.918	593.6
255.301	604
255.685	604
256.068	599.4
256.452	621.4
256.835	615.2
257.219	608
257.603	617
257.986	598.2
258.37	613.6
258.754	591.4
259.138	610.8
259.522	621.8
259.906	602.8
260.29	599.6
260.675	606.2
261.059	603.6
261.443	594
261.828	608
262.212	610
262.597	597.4
262.981	599.6
263.366	611.8
263.751	598.4
264.136	600.4
264.521	603.2
264.906	591.2
265.291	620.6
265.676	603.2
266.061	610
266.446	623
266.831	603.2
267.217	619
267.602	605.4
267.987	609.4
268.373	603.6
268.759	615.4
269.144	606.6
269.53	607.6
269.916	602.6
270.302	599
270.688	609.8
271.074	610.2
271.46	616.4
271.846	627.6
272.232	607.6
272.618	593.4
273.004	602.6
273.391	616.8
273.777	623.6
274.164	610.8
274.55	620.4
274.937	611
275.324	609
275.71	614.4
276.097	613.2
276.484	596.2
276.871	610.2
277.258	607.8
277.645	602.6
278.032	605
278.419	602.2
278.807	609.8
279.194	602.8
279.581	598.4
279.969	611.4
280.356	607.4
280.744	609.8
281.131	627.8
281.519	617.8
281.907	605.8
282.295	601
282.682	616.4
283.07	608.8
283.458	609.2
283.846	612.6
284.235	612.2
284.623	613.4
285.011	594.6
285.399	616.8
285.788	605.4
286.176	601
286.565	616
286.953	599.4
287.342	596.6
287.731	597
288.119	594.6
288.508	600.2
288.897	607.2
289.286	594
289.675	604.8
290.064	611
290.453	604.2
290.821	602.6
291.21	616.6
291.599	597.4
291.989	599.4
292.378	604.6
292.768	623.2
293.157	603.4
293.547	617.4
293.936	599.8
294.326	604
294.716	601.6
295.106	604.2
295.496	613.4
295.886	614.8
296.276	604.4
296.666	598.6
297.056	607.4
297.446	596.4
297.836	626
298.227	605.8
298.617	603.8
299.008	618
299.398	608
299.789	602.4
300.179	619.6
300.57	623.4
300.961	602.6
301.352	607.4
301.742	619.6
302.133	611.2
302.524	601.6
302.915	607.8
303.307	603.2
303.698	608.6
304.089	612.8
304.48	604.8
304.872	605.6
305.263	605.4
305.655	607
306.046	616.2
306.438	617.8
306.829	598.4
307.221	620.6
307.613	612.6
308.005	610.6
308.397	616
308.789	625.4
309.181	627
309.573	620
309.965	619.4
310.357	603.2
310.749	620
311.142	603
311.534	600.8
311.926	605.8
312.319	607.6
312.711	595.6
313.104	617.6
313.497	603
313.889	639.8
314.282	624.6
314.675	617.6
315.068	616.4
315.461	613.8
315.854	633.4
316.247	610.8
316.64	604
317.033	609.2
317.405	604.8
317.798	600.6
318.192	605.6
318.585	597.2
318.979	611.8
319.372	592.8
319.766	606.2
320.16	602.8
320.553	621
320.947	623.4
321.341	608
321.735	594.2
322.129	592
322.523	624.4
322.917	597.4
323.311	614.8
323.705	614.8
324.099	607.6
324.494	621.2
324.888	616
325.282	607.8
325.677	615.6
326.071	610.6
326.466	613.8
326.861	613.4
327.255	622.6
327.65	623.2
328.045	619.2
328.44	606.4
328.835	604.8
329.23	602.4
329.625	633.2
330.02	595
330.415	631
330.81	609.8
331.206	612.4
331.601	608.4
331.996	619.6
332.37	626.6
332.766	598.6
333.161	622.8
333.557	606.2
333.953	618.8
334.348	946.4
334.744	611.8
335.14	605.2
335.536	604.6
335.932	618.6
336.328	605.2
336.724	616.8
337.12	612.8
337.516	612.6
337.913	614
338.309	613.4
338.705	603.8
339.102	609.2
339.498	598.4
339.895	617
340.291	598.4
340.688	613
341.085	594.6
341.481	600.4
341.878	603.2
342.275	622.6
342.672	601.2
343.069	598.4
343.466	592.6
343.842	615.4
344.239	594.4
344.636	606.6
345.033	593.6
345.431	596.2
345.828	604.2
346.225	604.2
346.623	644.2
347.02	607
347.418	617
347.816	621.8
348.213	596.2
348.611	611
349.009	601.2
349.407	616
349.805	593
350.203	584.2
350.601	618.2
350.999	603.6
351.397	655.6
351.795	607.4
352.193	602.2
352.57	608
352.969	618.6
353.367	594.8
353.766	592.2
354.164	601.4
354.563	608
354.961	602.4
355.36	599.6
355.759	609.2
356.158	600.6
356.557	594
356.956	595.6
357.355	589.4
357.754	611.2
358.153	599
358.552	627
358.951	599.6
359.35	607
359.75	595
360.149	595
360.527	592
360.926	594
361.326	607.2
361.726	600.4
362.125	602.4
362.525	599.4
362.925	597.8
363.325	599.6
363.724	601.8
364.124	597
364.524	596.4
364.924	599.6
365.324	613.2
365.725	589.6
366.125	595.2
366.525	604.6
366.904	595
367.304	579
367.705	610
368.105	610.8
368.506	600.6
368.906	601.2
369.307	591.8
369.708	602.2
370.108	589.2
370.509	602.2
370.91	592.6
371.311	603.8
371.712	604.2
372.113	591.4
372.514	591.4
372.894	601
373.295	592.4
373.696	605.8
374.097	613
374.499	630.4
374.9	589.4
375.301	599
375.703	599.2
376.105	591.8
376.506	609
376.908	604
377.309	595.8
377.711	593
378.113	588.2
378.493	598.2
378.895	595.8
379.297	609.4
379.699	601
380.102	597.8
380.504	595.8
380.906	593.4
381.308	612.8
381.71	605.8
382.113	609.2
382.515	595
382.918	602
383.299	593.8
383.701	600.6
384.104	598.2
384.507	579.4
384.909	597.6
385.312	580.8
385.715	590.2
386.118	590.2
386.521	587
386.924	606.4
387.327	589.8
387.709	587.8
388.112	581
388.515	588.8
388.918	596
389.322	597.8
389.725	601.2
390.129	616.6
390.532	603.2
390.936	592.6
391.339	592.6
391.743	598.6
392.125	586.2
392.529	599
392.933	605
393.337	601.6
393.74	595.6
394.144	595.8
394.548	589.8
394.953	594.6
395.357	613.8
395.761	595.2
396.144	595
396.548	594
396.952	603
397.357	597.8
397.761	594.2
398.166	586.8
398.57	597.4
398.975	588.6
399.379	609.4
399.763	639.6
400.168	599.8
400.572	597.6
400.977	602.6
401.382	616.4
401.787	613.2
402.192	611.4
402.597	622.2
403.002	588.4
403.386	615.4
403.791	612.2
404.197	587
404.602	598
405.007	598.4
405.413	596.2
405.818	605
406.224	588
406.608	584.6
407.014	594
407.42	614
407.825	590.2
408.231	598
408.637	603.2
409.043	603.4
409.449	598.8
409.834	590.8
410.24	599.4
410.646	607.6
411.052	610.6
411.458	599.6
411.865	606.8
412.271	600.6
412.677	600.2
413.062	604.2
413.469	591.4
413.875	620.6
414.282	605.4
414.689	596
415.095	603.8
415.502	585.4
415.888	601
416.294	586.8
416.701	637.4
417.108	596.2
417.515	604.8
417.923	597.6
418.33	617.4
418.715	607.4
419.123	597.2
419.53	599.4
419.937	598
420.345	611
420.752	597
421.16	614.8
421.546	598.8
421.953	611
422.361	594
422.769	597.2
423.177	595
423.585	627
423.992	612.6
424.379	608.6
424.787	613.2
425.195	616.4
425.603	601.2
426.011	606.2
426.419	617.4
426.806	603.6
427.214	602.8
427.623	617.4
428.031	623.6
428.44	600.8
428.848	624.2
429.235	623.6
429.644	606.6
430.053	614
430.461	628
430.87	640
431.279	632.2
431.666	634.4
432.075	633.8
432.484	646.2
432.893	650
433.302	664.2
433.711	703.8
434.099	669.4
434.508	683.4
434.918	681.8
435.327	694.8
435.737	697
436.125	696.4
436.534	721
436.944	733.4
437.353	730.6
437.763	750.2
438.173	737.8
438.561	763.4
438.971	747.6
439.381	770.4
439.791	788.4
440.201	775
440.589	796
440.999	802.6
441.409	817.2
441.819	808.4
442.23	830.2
442.619	838.8
443.029	839
443.439	843
443.85	855.6
444.26	861.4
444.649	872.2
445.06	861.2
445.471	858.4
445.881	864.4
446.292	880.2
446.682	890.6
447.092	861.6
447.503	920
447.914	888.2
448.325	889.6
448.715	885.2
449.126	887
449.537	904
449.948	892.6
450.338	906.2
450.75	901.8
451.161	900.4
451.572	905.6
451.984	897.2
452.374	897
452.786	911
453.197	912.6
453.609	921
453.999	899.6
454.411	901
454.823	937.6
455.235	926.4
455.647	904.4
456.037	912.6
456.449	907.2
456.862	924.6
457.274	922.2
457.665	909.6
458.077	918.2
458.489	953.2
458.902	926.2
459.293	913.8
459.705	919.8
460.118	910.6
460.53	934.6
460.921	926.2
461.334	920.6
461.747	917.4
462.16	930.8
462.551	934
462.964	930
463.377	909.6
463.79	924.2
464.182	934.4
464.595	923.6
465.008	935
465.421	936.8
465.813	913.4
466.226	931.6
466.64	921.8
467.053	969.6
467.445	936
467.859	941.4
468.272	932.8
468.686	936.2
469.078	925.8
469.492	925.8
469.906	925
470.298	928
470.712	918.6
471.126	966.4
471.54	917.6
471.933	918.4
472.347	925
472.761	915.2
473.175	918
473.568	922.2
473.982	909
474.397	915.2
474.79	907.4
475.204	910.8
475.619	917.6
476.033	920.2
476.426	909
476.841	895.2
477.256	932
477.649	891.6
478.064	895
478.479	892.2
478.872	901.2
479.287	894
479.702	887.8
480.118	888
480.511	900.8
480.927	887
481.342	870
481.736	901.6
482.151	882.2
482.566	894
482.96	885.8
483.376	887.4
483.792	869.8
484.186	884
484.602	877.8
485.017	885.6
485.412	880.6
485.827	877.8
486.243	879.6
486.638	893
487.054	872.4
487.47	882.2
487.865	869.4
488.281	857.4
488.697	854.8
489.092	862.6
489.508	845
489.925	874.2
490.32	840.4
490.736	861.4
491.153	851.4
491.548	854.2
491.964	843
492.381	826.4
492.776	852.8
493.193	846
493.61	844
494.006	845.8
494.422	842.4
494.84	825.8
495.235	849
495.652	835.6
496.069	828
496.465	818.2
496.883	823.2
497.3	853.6
497.696	815.6
498.113	825.6
498.509	808.6
498.927	812.8
499.344	818.4
499.741	801.4
500.158	818
500.576	806.4
500.973	802.4
501.39	798.4
501.787	797.6
502.205	793.6
502.623	800.6
503.02	785.6
503.438	786
503.856	788.6
504.253	804.2
504.671	785.6
505.068	784.2
505.486	790.4
505.905	800.6
506.302	777
506.72	789
507.118	762.4
507.536	777.6
507.955	762.6
508.352	767.2
508.771	785.2
509.169	773.4
509.587	753.8
510.006	759
510.404	753.6
510.823	751.8
511.221	753.8
511.64	755
512.038	764
512.457	747.6
512.877	743.6
513.275	744.8
513.694	733.8
514.092	741.4
514.512	748.2
514.91	742.8
515.33	739.8
515.749	733.4
516.148	747.4
516.568	745
516.966	734
517.386	735.4
517.785	737.6
518.205	725.2
518.603	720.2
519.024	720.4
519.444	732.8
519.843	735.2
520.263	732.8
520.662	728.6
521.082	723.4
521.481	723.8
521.902	713.8
522.301	719.8
522.722	718
523.121	712.2
523.542	705
523.963	712.6
524.362	705.4
524.783	713.2
525.183	709.8
525.604	703.8
526.003	703.6
526.425	696.2
526.824	701.2
527.246	712.6
527.646	705.4
528.067	699.8
528.467	691.4
528.888	706.2
529.289	700.2
529.71	700.4
530.11	689.8
530.532	687.8
530.932	685.8
531.354	685.6
531.755	717.2
532.176	690
532.577	686.6
532.999	682.4
533.4	685.4
533.822	690
534.223	682.4
534.645	667.8
535.046	677.8
535.468	674
535.869	689.8
536.292	660.4
536.693	704.4
537.115	671.4
537.516	672.4
537.939	669
538.34	684.6
538.742	679
539.165	675.6
539.566	680
539.989	655.4
540.391	665.8
540.814	667.2
541.216	661.6
541.639	657.4
542.041	676.6
542.464	663.4
542.866	658
543.268	665
543.691	667
544.093	662.6
544.517	677
544.919	647.2
545.343	687.2
545.745	657.4
546.147	657
546.571	654.6
546.974	642.2
547.398	646.8
547.8	671.4
548.224	653.4
548.627	644
549.03	655.4
549.454	641
549.857	647.6
550.281	644.2
550.684	642
551.087	657.8
551.512	656
551.915	652.2
552.34	651.4
552.743	639
553.146	638
553.571	648
553.975	655
554.399	641.6
554.803	680.4
555.207	641.4
555.632	627.6
556.036	642
556.461	625.8
556.865	629.4
557.268	630.2
557.694	638.4
558.098	640.2
558.502	634.4
558.927	627.6
559.332	634
559.736	634.4
560.162	633.2
560.566	632.6
560.992	640.2
561.396	635
561.801	622.6
562.227	631.2
562.631	623
563.036	627.2
563.462	631.2
563.867	632.6
564.272	625.2
564.698	632.4
565.103	614.4
565.508	636.8
565.935	632.8
566.34	622.2
566.745	635
567.172	614.2
567.577	645
567.982	631
568.409	628.4
568.815	614.2
569.22	625.4
569.626	624.6
570.053	606.6
570.459	619.6
570.865	624
571.292	630.2
571.698	628
572.104	602.6
572.531	612.8
572.937	620.8
573.343	611.8
573.75	619.6
574.177	628.2
574.583	627.8
574.99	615.4
575.396	628.4
575.824	609.4
576.231	618.8
576.637	608.4
577.065	628.8
577.472	609.4
577.879	605.2
578.286	622.2
578.714	602
579.121	606.2
579.528	607.8
579.935	611.4
580.364	613.4
580.771	597.4
581.178	605.2
581.585	603.4
582.014	620.2
582.421	608.8
582.829	604.2
583.236	608
583.644	611.2
584.073	599.4
584.481	609.8
584.889	601.4
585.296	609.8
585.726	606.2
586.134	591.4
586.542	605.6
586.95	621.2
587.358	592
587.787	608
588.196	619.4
588.604	596.4
589.012	606.8
589.421	599.2
589.851	602
590.259	606.4
590.668	603.6
591.076	632.4
591.485	600.6
591.894	608
592.324	618
592.733	618.6
593.142	593.2
593.551	606.8
593.96	628.2
594.369	583.8
594.8	592.6
595.209	593.6
595.618	583.8
596.028	598
596.437	594.2
596.847	597.8
597.256	601.2
597.687	595.4
598.097	594.6
598.507	589
598.917	603
599.327	603.8
599.736	593.6
600.146	608.6
600.556	601
600.988	599.8
601.398	592
601.808	606.8
602.219	587.2
602.629	599.4
603.039	596.6
603.45	619.4
603.86	598.6
604.271	610
604.703	596.6
605.114	588.4
605.525	594.6
605.935	596.4
606.346	609.6
606.757	606.6
607.168	595.2
607.579	587.4
607.99	607
608.402	599.4
608.813	588.2
609.224	595.8
609.636	584.2
610.047	592.8
610.48	587.8
610.892	592.8
611.303	600.6
611.715	590.8
612.127	592.6
612.539	582
612.95	596.4
613.362	582.4
613.774	579.6
614.186	579.2
614.599	583.4
615.011	604.4
615.423	589.4
615.835	583.4
616.248	581.8
616.66	594.4
617.073	584.6
617.485	594.4
617.898	602.6
618.311	593.6
618.723	591.6
619.136	623.8
619.549	605
619.962	624.4
620.375	587.6
620.788	585.4
621.201	586.6
621.614	597
622.028	591.2
622.441	595
622.854	605.8
623.268	584.4
623.681	593.2
624.095	586.2
624.509	599
624.922	594.8
625.336	584.6
625.728	590.8
626.142	598.4
626.556	608.2
626.97	598.4
627.384	586.4
627.799	588.2
628.213	594.4
628.627	590
629.041	586.2
629.456	587.2
629.87	590.4
630.285	592.6
630.699	595.4
631.093	588.6
631.507	603.4
631.922	588.6
632.337	601.8
632.752	580.4
633.167	581.6
633.582	584.2
633.997	579
634.412	576.2
634.806	591.2
635.221	577.4
635.637	603
636.052	574.8
636.468	594.6
636.883	602.4
637.299	584.8
637.715	577.8
638.109	578.6
638.525	577.8
638.941	600.8
639.357	592
639.773	599.6
640.189	583.8
640.584	585.2
641	595
641.416	574.6
641.832	586.6
642.249	586.4
642.665	584.8
643.06	585.8
643.477	590.8
643.894	582.6
644.31	580.4
644.727	581.8
645.123	586.6
645.54	579.6
645.957	587.6
646.374	594.8
646.77	583.6
647.187	605.2
647.604	586.4
648.021	572
648.439	578.6
648.835	585.6
649.252	593.4
649.67	581
650.088	596.6
650.484	586.8
650.902	590.6
651.32	594.6
651.738	582.6
652.134	591.6
652.552	596.4
652.971	589
653.389	579.6
653.786	589.6
654.204	608.2
654.622	580.4
655.019	575.8
655.438	588.2
655.857	585.8
656.275	588.6
656.673	577.8
657.091	581.6
657.51	573.6
657.908	590.2
658.327	591.8
658.746	569.6
659.144	582.8
659.563	590.4
659.982	579.8
660.38	574.8
660.8	587.2
661.219	591.8
661.617	583.6
662.037	577.4
662.457	600
662.855	569.8
663.275	607.6
663.695	584.8
664.094	586
664.514	580.6
664.934	574
665.333	588.4
665.753	580.8
666.152	576.4
666.572	576.2
666.993	595
667.392	584
667.812	580.8
668.212	575.8
668.632	588.8
669.053	582.4
669.453	583.4
669.874	583.8
670.273	591.6
670.694	582.4
671.116	591.8
671.515	597.2
671.937	584.4
672.337	576.4
672.758	581.2
673.158	584.6
673.58	573
673.98	579
674.402	590.2
674.824	574.2
675.224	581.4
675.646	580.8
676.047	577.6
676.469	574.2
676.869	586.6
677.292	581.8
677.693	569.4
678.115	577.2
678.516	590
678.939	589.2
679.34	580.2
679.762	594.2
680.164	582.2
680.586	575.6
680.988	583.2
681.411	612.2
681.812	582.4
682.236	576.6
682.637	577.4
683.061	577.4
683.462	587.2
683.864	584.6
684.288	589.6
684.69	569.2
685.114	587.8
685.516	591
685.94	569.8
686.342	584.4
686.766	574.4
687.168	575.8
687.571	594.4
687.995	579
688.398	571.2
688.822	577.4
689.225	595.4
689.628	600.2
690.052	578.4
690.456	584.2
690.88	583.8
691.284	572
691.687	584
692.112	574.4
692.515	573
692.919	580.4
693.344	588.6
693.747	579.6
694.173	565.2
694.577	584.4
694.98	579.4
695.406	581.6
695.81	578
696.214	578.4
696.64	581.2
697.044	582.6
697.448	592.2
697.874	579.8
698.279	581.2
698.684	564.2
699.11	574.6
699.514	567.2
699.919	582.4
700.324	576
700.75	579.2
701.156	584.8
701.561	592.2
701.987	580.4
702.393	589.8
702.798	595.2
703.203	581.4
703.63	573.4
704.036	570.6
704.442	567
704.847	574.6
705.274	574.6
705.68	583.6
706.086	586
706.492	560.8
706.92	579.6
707.326	590.6
707.732	575.2
708.139	569.8
708.545	567
708.973	575.2
709.38	579.8
709.786	567.6
710.193	589.8
710.6	577.8
711.028	571.4
711.435	573.6
711.842	591.6
712.249	571
712.656	584.6
713.064	584.8
713.492	572.4
713.9	576.4
714.307	589
714.715	582.4
715.123	585.4
715.53	581.6
715.938	586.2
716.367	581.4
716.775	567.8
717.184	570.6
717.592	575.6
718	594.8
718.408	615
718.816	613.6
719.225	579.6
719.633	577.4
720.042	567.8
720.472	578.6
720.881	590.8
721.29	583
721.699	567.4
722.108	587.6
722.517	581.8
722.926	580.6
723.335	592.8
723.744	581.4
724.154	572.6
724.563	584.6
724.973	583.6
725.382	589.4
725.792	580.4
726.202	573.4
726.612	591.4
727.022	575.6
727.432	572
779.813	575.6
780.223	610.6
780.634	576.6
781.044	567.4
781.454	582.4
781.865	589.2
782.276	565.6
782.686	586.2
783.097	577.2
783.508	575
783.919	578.8
784.33	587.2
784.741	591.8
785.152	572.8
785.563	569
785.974	583
786.386	583.4
786.776	573
787.188	578.6
787.599	566.4
788.011	588.4
788.423	579.2
788.835	572.6
789.247	579.8
789.659	574.8
790.071	578.8
790.483	620.6
790.874	572
791.286	584
791.699	569.8
792.111	580
792.524	573.4
792.937	565.4
793.349	565.6
793.741	568.8
794.154	574.6
794.567	598.4
794.98	575.4
795.393	564.4
795.785	586.6
796.198	572.2
796.612	584.8
797.026	567.8
797.439	560.4
797.831	585.8
798.245	573.4
798.659	568.4
799.073	577.8
799.487	574.4
799.88	571
800.294	574.8
800.708	582.4
801.123	580.2
801.516	589
801.93	560.8
802.345	563.2
802.76	576
803.153	585.6
803.568	583.8
803.983	584.6
804.377	584
804.792	573
805.207	561.6
805.601	571.6
806.016	603.8
806.432	575.8
806.826	602
807.242	586
807.658	575.2
808.052	572.4
808.468	573.6
808.884	564.2
809.279	573
809.695	579.8
810.111	593
810.506	575
810.922	589.2
811.339	567.4
811.734	584
812.151	577.6
812.546	578.4
812.963	568.6
813.38	589.2
813.776	572.8
814.193	594.4
814.589	576.8
815.006	574
815.402	566.4
815.82	573.2
816.237	582
816.633	581.8
817.051	573.2
817.448	578.4
817.866	566
818.262	595
818.68	570.6
819.077	571.6
819.495	573.4
819.892	610.8
820.311	567.2
820.708	574
821.127	566.2
821.524	586
821.943	583.8
822.34	590.2
822.759	574.6
823.157	578.2
823.576	580.2
823.974	577.6
824.393	617.6
824.791	566.2
825.189	568.6
825.609	574.2
826.007	571.2
826.427	562.4
826.826	572.6
827.246	577.2
827.644	565.2
828.043	580.6
828.463	573.8
828.862	584
829.261	571.8
829.682	564.2
830.081	579.4
830.502	573.6
830.901	579
831.301	586.6
831.722	568.4
832.121	573.8
832.521	575.4
832.943	569.8
833.342	575.6
833.742	565.2
834.164	573.2
834.564	572.8
834.965	573
835.386	572.6
835.787	578.4
836.188	579
836.588	580.2
837.01	579
837.411	568.2
837.812	582.2
838.213	581.2
838.636	576.6
839.037	643.2
839.438	576.8
839.84	571.2
840.263	579.4
840.664	569.6
841.066	573.4
841.468	572
841.891	574.6
842.293	582.2
842.695	579
843.098	580
843.5	570
843.902	578.4
844.326	584
844.729	569.6
845.131	580.2
845.534	572.6
845.937	585.4
846.34	595.8
846.764	563.4
847.167	577.2
847.571	571.6
847.974	572.6
848.377	568.6
848.781	619
849.184	583.6
849.588	576.8
849.992	568.6
850.396	579.2
850.821	592.4
851.225	575.4
851.63	569.6
852.034	588
852.438	563.6
852.843	592.4
853.247	562
853.652	561.6
854.057	588.4
854.462	569
854.867	567.4
855.272	602.6
855.677	578.8
856.082	568.8
856.487	560.4
856.893	572.2
857.298	576.2
857.704	567.2
858.11	582
858.516	580
858.922	571.2
859.328	587
859.734	574
860.14	578.6
860.525	576.8
860.931	571
861.338	579
861.745	581.8
862.151	586.2
862.558	576.6
862.965	567.6
863.372	567.6
863.779	567.2
864.186	589.4
864.572	571.4
864.98	595.8
865.387	611.6
865.795	565.6
866.203	578.6
866.61	565.6
867.018	580.4
867.405	578.2
867.813	570.6
868.221	576
868.63	573.4
869.038	578.8
869.425	611.8
869.834	586.6
870.243	574.2
870.652	571.6
871.039	569
871.448	566.6
871.857	576.8
872.266	567
872.654	570
873.064	570.2
873.473	581.2
873.883	558
874.271	563.8
874.681	580.4
875.091	562.6
875.48	579.4
875.89	588.8
876.3	561.4
876.689	558.6
877.1	571.4
877.51	567.8
877.9	596.2
878.31	568.2
878.721	594.6
879.111	572.8
879.522	566.8
879.933	562.4
880.323	562
880.734	568.8
881.125	567.8
881.536	571.4
881.948	568
882.338	575.6
882.75	581
883.141	570.2
883.553	570
883.944	591.8
884.356	575
884.769	573.8
885.16	567.6
885.573	573
885.964	565.6
886.377	568
886.768	567.4
887.181	570.8
887.573	563.6
887.987	572.4
888.378	579.4
888.792	574.2
889.184	622
889.598	561.2
889.99	570.8
890.383	565.8
890.797	564
891.19	586.8
891.604	567.8
891.997	566.6
892.411	564.8
892.805	568.2
893.198	572.6
893.613	560.4
894.006	568.4
894.421	565.2
894.815	568
895.209	564.6
895.624	611.8
896.018	592.6
896.412	570.2
896.828	577.6
897.222	575
897.617	567
898.033	587.4
898.427	571.8
898.822	568.2
899.239	555.4
899.634	561.2
900.029	583.4
900.424	563.4
900.841	561.2
901.236	580.6
901.632	580.4
902.027	622.4
902.445	574.4
902.841	569
903.237	571.2
903.633	582.4
904.05	584.2
904.447	579.6
904.843	577.6
905.24	571.8
905.636	556.2
906.033	573
906.451	580.6
906.848	568
907.246	563.6
907.643	571.2
908.04	572
908.438	584.6
908.835	570.2
909.254	577.2
909.652	577
910.05	563.2
910.448	566.4
910.846	579.2
911.244	564.8
911.643	574.4
912.041	574.2
912.44	583.2
912.839	568.6
913.237	568.8
913.636	565.6
914.035	581.2
914.434	573
914.834	574.2
915.233	584.2
915.633	563.6
916.032	570.6
916.432	570.6
916.832	579.4
917.232	562
917.632	559
918.032	580.4
918.432	573
918.833	566.8
919.233	567
919.634	561.8
920.035	572.2
920.436	565.8
920.837	577.8
921.238	568.2
921.639	567.4
922.019	565.8
922.42	575.6
922.822	577.4
923.224	571
923.625	568.6
924.027	566.6
924.429	582.2
924.81	577.4
925.212	576.2
925.615	578.6
926.017	572.4
926.42	585.4
926.801	573.2
927.204	569.4
927.607	578.8
928.01	582.6
928.413	579.2
928.795	559.6
929.199	567.8
929.602	568.8
930.006	573.2
930.388	559.8
930.792	573.8
931.196	564
931.579	593.8
931.983	558.6
932.388	612
932.771	569
933.176	561.6
933.58	572.6
933.964	576.6
934.369	560.6
934.774	572
935.158	564.6
935.563	564.8
935.947	579.8
936.353	578.6
936.759	575.4
937.143	574.8
937.549	572.6
937.934	580
938.34	580.8
938.746	565
939.131	575
939.538	556.6
939.923	569.2
940.33	563.4
940.716	568.2
941.123	579.6
941.508	576.2
941.916	585.6
942.302	574.8
942.709	561
943.096	565.2
943.503	584
943.89	566.2
944.298	553.6
944.685	599.8
945.072	570.4
945.48	580.2
945.867	567.6
946.276	562.2
946.663	588
947.051	577
947.46	582
947.848	570.4
948.257	574.4
948.645	564
949.033	571
949.443	563.2
949.831	604.8
950.22	559.2
950.63	578.2
951.018	588
951.407	566
951.796	564.8
952.207	571.6
952.596	585
952.985	564.2
953.375	610.8
953.786	572.4
954.176	556
954.566	569.4
954.956	563.2
955.367	569.6
955.758	594.2
956.148	559.4
956.539	581.8
956.929	558.6
957.341	560
957.732	563
958.123	574.8
958.515	560.2
958.906	574.2
959.297	571
959.689	562
960.102	568
960.494	574.8
960.886	565
961.278	569
961.67	591
962.062	605.2
962.455	567
962.847	562
963.24	568.4
963.633	566.2
964.026	560
964.419	565.2
964.812	582.8
965.206	559.2
965.599	571.4
965.993	566
966.386	569.4
966.78	575.8
967.174	572.6
967.569	558.4
967.963	561
968.357	562.4
968.752	558.2
969.146	566
969.541	560.2
969.936	568.4
970.331	572
970.705	566
971.1	561.8
971.496	577.6
971.892	556.2
972.287	568
972.683	572
973.079	569.2
973.454	582.2
973.85	577.6
974.247	579.2
974.643	591
975.04	566.4
975.415	571
975.812	561.8
976.209	573.8
976.607	565.6
976.982	579.2
977.38	579.2
977.778	567.6
978.175	556.4
978.552	571.8
978.95	560.8
979.348	576
979.725	613.8
980.123	572.4
980.522	571.2
980.899	562.2
981.298	571
981.697	567.2
982.075	564.2
982.474	562.8
982.852	564
983.251	567.6
983.651	562.2
984.029	571.6
984.429	568
984.808	551
985.208	570.6
985.609	557.2
985.987	557.8
986.388	565.2
986.768	578.4
987.168	564.4
987.548	572.6
987.949	578
988.329	569.4
988.731	556.4
989.111	567.6
989.491	564
989.893	564.8
990.273	575.4
990.676	556
991.057	556.4
991.459	562.6
991.84	567.2
992.221	552.8
992.624	585.4
993.006	570.8
993.388	570.8
993.791	572
994.173	570.8
994.576	600.2
994.959	562.2
995.341	558.8
995.724	563.4
996.128	575
996.511	575.8
996.894	563.6
997.298	562
997.681	568.4
998.065	567.4
998.448	560.4
998.854	578.4
999.237	569
999.621	572.6
1000.01	581
1000.39	569
1000.8	566.2
1001.18	572.2
1001.56	574
1001.95	571
1002.33	573.2
1002.72	573.8
1003.13	566.4
1003.51	567
1003.9	565.4
1004.28	585.6
1004.67	569.8
1005.06	569.4
1005.44	593.2
1005.83	559.2
1006.21	567.2
1006.6	575.6
1006.99	580.6
1007.37	571.6
1007.76	570.8
1060.12	567.6
1060.51	565.4
1060.89	575.2
1061.28	579.6
1061.67	579.8
1062.06	571.4
1062.45	573.4
1062.83	566.2
1063.22	577.2
1063.61	603.6
1064	575.6
1064.39	564
1064.78	559.6
1065.14	581.6
1065.53	576.6
1065.92	568.8
1066.31	562.6
1066.7	576
1067.09	578.8
1067.46	581.2
1067.85	569.6
1068.24	556.8
1068.63	575.6
1069.02	569.4
1069.39	566.4
1069.78	569.6
1070.17	572.4
1070.57	565.8
1070.93	567.4
1071.33	560.8
1071.72	571.4
1072.11	570
1072.48	556.6
1072.87	562.2
1073.26	564.6
1073.64	568.4
1074.03	562.8
1074.4	564.8
1074.79	563.4
1075.19	574.2
1075.56	561.6
1075.95	568.2
1076.34	566.8
1076.72	566.4
1077.11	578.6
1077.48	570
1077.88	569.6
1078.25	562
1078.64	572.8
1079.02	565.4
1079.41	570.2
1079.78	570.8
1080.18	563.2
1080.55	625.4
1080.95	564
1081.32	561.4
1081.72	575.6
1082.09	568.4
1082.49	559.8
1082.86	560.6
1083.24	566.8
1083.63	561
1084.01	564
1084.38	569.4
1084.78	558.2
1085.16	574
1085.55	577.8
1085.93	582.2
1086.31	560
1086.7	589.6
1087.08	562.6
1087.46	571.6
1087.83	560.2
1088.23	575.6
1088.61	571.8
1088.99	565.4
1089.36	564.6
1089.76	565.6
1090.14	567.2
1090.52	564
1090.9	565.4
1091.27	574.4
1091.67	599.2
1092.05	573.2
1092.43	555.8
1092.81	573
1093.19	566.2
1093.57	565.4
1093.95	562.4
1094.35	568.2
1094.73	573.8
1095.11	562.6
1095.49	563
1095.87	563.8
1096.25	567.4
1096.63	570.4
1097.01	563.4
1097.39	568
1097.77	567.4
1098.15	558.8
1098.53	557.2
1098.91	568.2
1099.29	562.8
1099.68	578
1100.06	570.4
1100.44	565.2
1100.82	573.6
1101.18	571.4
1101.56	565.8
1101.95	565.6
1102.33	566.4
1102.71	575.6
1103.1	558.4
1103.48	554.4
1103.86	564
1104.22	572.8
1104.61	566.2
1104.99	568
1105.38	558.8
1105.76	566.4
1106.12	567.4
1106.51	597.8
1106.89	574
1107.26	558
1107.64	567.6
1108.03	561.2
1108.41	563.6
1108.78	563.8
1109.16	563.4
1109.55	574.6
1109.91	558.6
1110.3	549.2
1110.69	565
1111.05	555.4
1111.44	559.6
1111.8	565
1112.19	563.2
1112.58	570.2
1112.94	551
1113.33	561
1113.7	558.8
1114.09	560.4
1114.45	557.8
1114.84	561.8
1115.21	571.8
1115.6	564.2
1115.96	567.8
1116.35	580
1116.72	566.6
1117.11	576.8
1117.48	560.2
1117.85	568.6
1118.24	577.6
1118.6	562.2
1118.99	565.2
1119.36	564.4
1119.73	560.2
1120.12	564.4
1120.49	562
1120.86	573.6
1121.25	564.2
1121.62	548.2
1121.99	559.2
1122.38	575
1122.76	560.6
1123.13	554.6
1123.5	571.6
1123.89	584.4
1124.26	564.6
1124.63	566.6
1125	560.4
1125.4	560.2
1125.77	556.6
1126.14	549.2
1126.51	573
1126.88	566.8
1127.26	562.2
1127.63	566.2
1128.02	562.4
1128.4	565.6
1128.77	558.8
1129.14	562.2
1129.52	563.8
1129.89	574.8
1130.26	567.8
1130.64	559.4
1131.01	570.2
