#lambda/nm	C1
208.295	535.4
208.67	479.8
209.045	444
209.419	447.4
209.794	605.6
210.169	595.2
210.544	702.6
210.919	604.4
211.295	592.8
211.67	606.6
212.045	602.6
212.421	592
212.796	635.8
213.172	606
213.547	594.8
213.923	605.4
214.299	595.4
214.675	608.8
215.051	608
215.427	612.8
215.803	617.6
216.179	608.6
216.555	602.2
216.932	606.6
217.308	607.8
217.684	607.8
218.061	618.2
218.438	612
218.814	601.4
219.191	617.8
219.568	604
219.945	605.4
220.322	613.6
220.699	612.4
221.076	610.6
221.453	612
221.83	605.2
222.208	600.6
222.585	597.6
222.962	603
223.34	610.8
223.717	608
224.095	604.2
224.473	610.2
224.851	602.6
225.229	598.2
225.607	620.4
225.985	593
226.363	607.8
226.741	602
227.119	610.2
227.497	624
227.876	590.6
228.254	612.8
228.633	603.4
229.011	608.4
229.39	598
229.769	610.4
230.148	604.4
230.527	623.6
230.905	607.4
231.284	597.6
231.664	604.2
232.043	609.2
232.422	616.2
232.801	599.4
233.181	609
233.56	600.6
233.94	599
234.319	599.2
234.699	607.4
235.079	637.2
235.458	635.4
235.838	619
236.218	602.8
236.598	595.4
236.978	597.4
237.358	589.8
237.738	600
238.119	607
238.499	595.6
238.88	598.4
239.26	613.6
239.641	596.8
240.021	600.6
240.402	598
240.783	599.4
241.163	601
241.544	606.2
241.925	607.2
242.306	618
242.687	606
243.069	604.2
243.45	607.4
243.831	598.8
244.212	595.2
244.594	636.4
244.975	610.4
245.357	600.2
245.739	603
246.12	599.8
246.502	621.4
246.884	593.8
247.266	599.2
247.648	609.6
248.03	623.6
248.412	609.6
248.794	603.8
249.176	601.6
249.559	607.6
249.941	600.8
250.323	597
250.706	599.6
251.089	607.2
251.471	613.6
251.854	593.6
252.237	604
252.62	617.4
253.002	608.6
253.385	604.2
253.769	615.4
254.152	601
254.535	611.6
254.918	591.2
255.301	607.4
255.685	603.2
256.068	589
256.452	624.6
256.835	616.6
257.219	607.6
257.603	621.4
257.986	602
258.37	602.6
258.754	595.2
259.138	611.2
259.522	614.8
259.906	607.8
260.29	612.4
260.675	601.8
261.059	607.4
261.443	595.6
261.828	608.6
262.212	605.2
262.597	590.2
262.981	602.2
263.366	609
263.751	608
264.136	606.2
264.521	603.8
264.906	602.6
265.291	619.2
265.676	599.2
266.061	609.2
266.446	616.2
266.831	607
267.217	626.2
267.602	608
267.987	605
268.373	604
268.759	617.6
269.144	613.8
269.53	606.8
269.916	595.8
270.302	599.8
270.688	604.8
271.074	603
271.46	619.4
271.846	620.6
272.232	599
272.618	595
273.004	605
273.391	616.2
273.777	612.6
274.164	605.6
274.55	611.8
274.937	606
275.324	599.6
275.71	610.6
276.097	609
276.484	592
276.871	609.2
277.258	604.2
277.645	590.6
278.032	604.4
278.419	598
278.807	610.4
279.194	596.4
279.581	599
279.969	621.8
280.356	614.2
280.744	609.8
281.131	626.2
281.519	619.6
281.907	603.2
282.295	603.8
282.682	610
283.07	614.6
283.458	609.2
283.846	622.6
284.235	619.2
284.623	619.6
285.011	594.2
285.399	608.4
285.788	617.6
286.176	596.2
286.565	613.6
286.953	604.2
287.342	601.4
287.731	598.2
288.119	594.6
288.508	596.4
288.897	607.6
289.286	592.2
289.675	605
290.064	612.8
290.453	602.4
290.821	607.4
291.21	622.8
291.599	606.4
291.989	608.2
292.378	614.2
292.768	623.8
293.157	616.4
293.547	616
293.936	611.8
294.326	602.2
294.716	614
295.106	607.6
295.496	613
295.886	610.4
296.276	610.4
296.666	601
297.056	604.4
297.446	597.8
297.836	621.8
298.227	601.8
298.617	605
299.008	615.8
299.398	613.6
299.789	602
300.179	610.8
300.57	619.2
300.961	603.2
301.352	603.8
301.742	614.6
302.133	602.2
302.524	605.6
302.915	607
303.307	593.6
303.698	618.8
304.089	614.4
304.48	611.8
304.872	605.6
305.263	604.4
305.655	601.6
306.046	621
306.438	603.2
306.829	600.2
307.221	616
307.613	609.4
308.005	604.4
308.397	621.2
308.789	628.4
309.181	623
309.573	623.4
309.965	611.8
310.357	605
310.749	614.6
311.142	603
311.534	599.6
311.926	613.8
312.319	608
312.711	602.8
313.104	614.4
313.497	604.6
313.889	645
314.282	615.6
314.675	625.2
315.068	604
315.461	618
315.854	637.6
316.247	614.4
316.64	607.2
317.033	606.6
317.405	606.4
317.798	600.4
318.192	607
318.585	604.4
318.979	608
319.372	609.8
319.766	605.6
320.16	618.4
320.553	625.4
320.947	619.8
321.341	608.6
321.735	608.4
322.129	594.8
322.523	628.6
322.917	594.4
323.311	609.2
323.705	614.8
324.099	608.6
324.494	632.4
324.888	610
325.282	607.8
325.677	613.4
326.071	611.6
326.466	616.8
326.861	609.8
327.255	616.2
327.65	621.6
328.045	624
328.44	610.4
328.835	604.6
329.23	603.4
329.625	633.2
330.02	594
330.415	626.6
330.81	609.2
331.206	600.8
331.601	609.2
331.996	613.2
332.37	622.4
332.766	599.2
333.161	617.8
333.557	598
333.953	613.6
334.348	889.6
334.744	616
335.14	598.4
335.536	606.2
335.932	614.2
336.328	608.2
336.724	613.8
337.12	607.4
337.516	608.6
337.913	608.2
338.309	616
338.705	598.8
339.102	619.2
339.498	603.6
339.895	615.4
340.291	606.2
340.688	619.8
341.085	603.4
341.481	598.8
341.878	606.2
342.275	626.4
342.672	605.6
343.069	599.2
343.466	594.8
343.842	617
344.239	592.6
344.636	600.8
345.033	594
345.431	599.6
345.828	599.4
346.225	597.4
346.623	635.8
347.02	602.8
347.418	610
347.816	615.6
348.213	595
348.611	608.4
349.009	600.2
349.407	604.8
349.805	593.4
350.203	589
350.601	612.4
350.999	603.6
351.397	636.4
351.795	601.2
352.193	599
352.57	602
352.969	610.2
353.367	594.4
353.766	593.6
354.164	595.8
354.563	617.8
354.961	597.6
355.36	588.6
355.759	602.4
356.158	596.4
356.557	598.4
356.956	600.4
357.355	603.2
357.754	607.6
358.153	605.8
358.552	628.8
358.951	606.8
359.35	614.4
359.75	599
360.149	594.4
360.527	590.2
360.926	591
361.326	599.4
361.726	599.4
362.125	596.2
362.525	603.6
362.925	596.6
363.325	604.2
363.724	603.8
364.124	595.8
364.524	588.4
364.924	601.4
365.324	611.4
365.725	593.8
366.125	609.6
366.525	598
366.904	593.2
367.304	581.4
367.705	613.2
368.105	604.4
368.506	596
368.906	602.4
369.307	602.4
369.708	604.2
370.108	592
370.509	604.8
370.91	585.4
371.311	599
371.712	600.6
372.113	597.8
372.514	588.2
372.894	601.8
373.295	584.6
373.696	607.2
374.097	603.2
374.499	625
374.9	596
375.301	586.2
375.703	601.8
376.105	596
376.506	605.8
376.908	603.6
377.309	604.6
377.711	604.2
378.113	596.2
378.493	595.6
378.895	595.2
379.297	608
379.699	583.2
380.102	611.4
380.504	598.8
380.906	590.8
381.308	624
381.71	602.6
382.113	604.2
382.515	600.4
382.918	609
383.299	594.8
383.701	609.4
384.104	607.6
384.507	578.4
384.909	595.4
385.312	590.2
385.715	593.8
386.118	594.8
386.521	588.4
386.924	610
387.327	592.2
387.709	584.4
388.112	575.2
388.515	593.8
388.918	599.6
389.322	599.6
389.725	592
390.129	616
390.532	600
390.936	600.8
391.339	584.6
391.743	602.2
392.125	594
392.529	612.6
392.933	612.2
393.337	592.8
393.74	592.2
394.144	604.4
394.548	591.6
394.953	592.8
395.357	598
395.761	588.4
396.144	595.4
396.548	596.2
396.952	595.2
397.357	599.4
397.761	589.6
398.166	597.4
398.57	597.2
398.975	589.8
399.379	602.4
399.763	638.6
400.168	596.4
400.572	595.8
400.977	592
401.382	614
401.787	600.2
402.192	616.4
402.597	606.4
403.002	577.8
403.386	612
403.791	607.8
404.197	591.4
404.602	603.4
405.007	597.4
405.413	591.6
405.818	590.4
406.224	585.8
406.608	590.8
407.014	584.4
407.42	604.6
407.825	594.2
408.231	600.4
408.637	589.4
409.043	609
409.449	593.4
409.834	591
410.24	597.6
410.646	604
411.052	607.2
411.458	602.2
411.865	598.6
412.271	601.8
412.677	605
413.062	609.8
413.469	596.2
413.875	625.2
414.282	609.4
414.689	606
415.095	603.2
415.502	589.4
415.888	595.4
416.294	585
416.701	627.8
417.108	589.8
417.515	606.8
417.923	601.2
418.33	612.4
418.715	607.8
419.123	592.4
419.53	599.6
419.937	600.6
420.345	613.4
420.752	595.8
421.16	624.6
421.546	596.4
421.953	605
422.361	592.6
422.769	592.8
423.177	588
423.585	621.4
423.992	610
424.379	608.4
424.787	607.4
425.195	618.2
425.603	598
426.011	601.6
426.419	605.8
426.806	601.8
427.214	599.2
427.623	609.2
428.031	610
428.44	603.4
428.848	614.8
429.235	618.4
429.644	607
430.053	603.6
430.461	616.8
430.87	624.8
431.279	603.2
431.666	597.8
432.075	603
432.484	603.2
432.893	600.6
433.302	627.2
433.711	645
434.099	606.2
434.508	598.2
434.918	596.2
435.327	603.8
435.737	595.4
436.125	599.4
436.534	610.2
436.944	602
437.353	602.6
437.763	625.6
438.173	592.6
438.561	608.2
438.971	578.8
439.381	598.8
439.791	603.4
440.201	582.4
440.589	597.8
440.999	601.8
441.409	598.4
441.819	587
442.23	603.4
442.619	605
443.029	593
443.439	596
443.85	609
444.26	620.2
444.649	601
445.06	590
445.471	590.2
445.881	598.2
446.292	612
446.682	615.4
447.092	581
447.503	641
447.914	599.4
448.325	598.2
448.715	596.8
449.126	582.2
449.537	592.4
449.948	597
450.338	597.6
450.75	604.6
451.161	589.4
451.572	606
451.984	593.6
452.374	575.4
452.786	597.8
453.197	599.6
453.609	603
453.999	578.8
454.411	587.4
454.823	603.2
455.235	608.2
455.647	593.6
456.037	602
456.449	581
456.862	591.4
457.274	594.6
457.665	593.2
458.077	601.2
458.489	626.8
458.902	594.4
459.293	597.6
459.705	589.8
460.118	590.4
460.53	600.8
460.921	602.6
461.334	600.8
461.747	591.2
462.16	604.2
462.551	605.6
462.964	604.6
463.377	585.8
463.79	585.8
464.182	602.2
464.595	578.8
465.008	593.8
465.421	604
465.813	594.2
466.226	605.2
466.64	595
467.053	640.4
467.445	598.8
467.859	597.4
468.272	594.6
468.686	606.2
469.078	596.4
469.492	574.8
469.906	590.4
470.298	604.6
470.712	586
471.126	649
471.54	582.6
471.933	585.8
472.347	593.4
472.761	588.4
473.175	587.2
473.568	589.6
473.982	585.4
474.397	589.8
474.79	595.8
475.204	601.8
475.619	597.6
476.033	585.8
476.426	592
476.841	586.6
477.256	613
477.649	589.6
478.064	581.8
478.479	580
478.872	589.4
479.287	577
479.702	583.8
480.118	601.6
480.511	594.4
480.927	591.6
481.342	592.4
481.736	598.6
482.151	588.8
482.566	600.2
482.96	599.6
483.376	604.4
483.792	587.4
484.186	598.6
484.602	596.8
485.017	589.2
485.412	596.8
485.827	595.8
486.243	587.8
486.638	609.4
487.054	598.4
487.47	604.6
487.865	586.4
488.281	588.2
488.697	588
489.092	590.6
489.508	589.2
489.925	595.8
490.32	585
490.736	596
491.153	594
491.548	593.8
491.964	601
492.381	584.6
492.776	596.4
493.193	588.6
493.61	595.8
494.006	591.2
494.422	595.6
494.84	575.6
495.235	588.2
495.652	582.8
496.069	593.8
496.465	575.2
496.883	593.6
497.3	609
497.696	586.4
498.113	604.6
498.509	578.2
498.927	578.6
499.344	577
499.741	580.2
500.158	595.2
500.576	585.6
500.973	585.6
501.39	589.6
501.787	576.6
502.205	589.6
502.623	580.2
503.02	577.8
503.438	582.2
503.856	595.2
504.253	582.4
504.671	587
505.068	582.2
505.486	584
505.905	603.4
506.302	589.2
506.72	603.6
507.118	570.8
507.536	587
507.955	579.4
508.352	594.4
508.771	596
509.169	589.2
509.587	576.6
510.006	582.6
510.404	587.8
510.823	578.4
511.221	586.6
511.64	594.6
512.038	604.6
512.457	593.4
512.877	591.2
513.275	587
513.694	594.6
514.092	588
514.512	589
514.91	593.4
515.33	588.6
515.749	590.4
516.148	597.2
516.568	588.8
516.966	589
517.386	587.6
517.785	587.2
518.205	593
518.603	578.8
519.024	584.8
519.444	584.6
519.843	589
520.263	595.4
520.662	592.8
521.082	578.6
521.481	589.6
521.902	579
522.301	592.6
522.722	583
523.121	579.6
523.542	577
523.963	584
524.362	590.4
524.783	585.8
525.183	586.2
525.604	592.6
526.003	581
526.425	586
526.824	585.2
527.246	596.8
527.646	592.4
528.067	591.8
528.467	588.2
528.888	593.4
529.289	584.8
529.71	584.8
530.11	583.2
530.532	587
530.932	584.2
531.354	575.4
531.755	619.4
532.176	593.2
532.577	585.8
532.999	579
533.4	583.4
533.822	601
534.223	591.2
534.645	588.2
535.046	583.4
535.468	590.6
535.869	599.4
536.292	580
536.693	612.2
537.115	594.2
537.516	580
537.939	585
538.34	596.8
538.742	600.8
539.165	582.8
539.566	586.8
539.989	574.4
540.391	582.6
540.814	584.6
541.216	592.2
541.639	582
542.041	586.4
542.464	575.2
542.866	579.6
543.268	575.2
543.691	587.2
544.093	587
544.517	595.4
544.919	585.4
545.343	605.2
545.745	582.8
546.147	584.4
546.571	587.4
546.974	571.4
547.398	587.2
547.8	594.6
548.224	588
548.627	582.8
549.03	592.8
549.454	586.6
549.857	584.4
550.281	579
550.684	585
551.087	596.8
551.512	592.4
551.915	593.4
552.34	579.8
552.743	581.6
553.146	584.6
553.571	586.4
553.975	609
554.399	585.6
554.803	633.6
555.207	584.2
555.632	591.6
556.036	589.6
556.461	588.4
556.865	590.2
557.268	585.2
557.694	582
558.098	594
558.502	598
558.927	583.6
559.332	588.2
559.736	583.8
560.162	588.2
560.566	586
560.992	587.4
561.396	580.6
561.801	584.4
562.227	587.4
562.631	580.4
563.036	589.8
563.462	588
563.867	580.8
564.272	568.6
564.698	587.6
565.103	580.4
565.508	604.4
565.935	588.6
566.34	581
566.745	599
567.172	583.2
567.577	606.4
567.982	602.8
568.409	584.4
568.815	581
569.22	585.4
569.626	583.4
570.053	579.8
570.459	593.6
570.865	587.2
571.292	592.4
571.698	589
572.104	572.4
572.531	582.4
572.937	598.6
573.343	583.6
573.75	579.2
574.177	582.2
574.583	596.6
574.99	584.8
575.396	589.8
575.824	580.4
576.231	591.6
576.637	582.6
577.065	608.8
577.472	588.6
577.879	585.4
578.286	597.6
578.714	584.8
579.121	581.6
579.528	585.2
579.935	590.8
580.364	576.8
580.771	572.8
581.178	582.2
581.585	588.2
582.014	592
582.421	581.6
582.829	580.2
583.236	590.4
583.644	583.2
584.073	581.4
584.481	583.8
584.889	580
585.296	589.4
585.726	589.2
586.134	576
586.542	580.8
586.95	604.4
587.358	569.4
587.787	584.8
588.196	593.8
588.604	587
589.012	587.8
589.421	586
589.851	577
590.259	585
590.668	577.8
591.076	617.2
591.485	575.6
591.894	580.8
592.324	595
592.733	595.4
593.142	573
593.551	583.8
593.96	617.2
594.369	577.8
594.8	581.2
595.209	584.2
595.618	568.8
596.028	585
596.437	574.2
596.847	578.2
597.256	580
597.687	588.8
598.097	573.8
598.507	566.8
598.917	588
599.327	584.2
599.736	587
600.146	585
600.556	569
600.988	593.8
601.398	580.4
601.808	591.2
602.219	571.8
602.629	586.2
603.039	589.4
603.45	611.8
603.86	589
604.271	597.2
604.703	587.2
605.114	582.4
605.525	586.6
605.935	588.6
606.346	603.8
606.757	591.6
607.168	573.2
607.579	587.6
607.99	584.8
608.402	583.4
608.813	589
609.224	586
609.636	576.4
610.047	572
610.48	581.6
610.892	583.6
611.303	590.6
611.715	583.2
612.127	575.4
612.539	582.6
612.95	579.4
613.362	576.4
613.774	579.4
614.186	573.8
614.599	581.4
615.011	595.4
615.423	583
615.835	578
616.248	571.6
616.66	585.8
617.073	576.8
617.485	586.2
617.898	581
618.311	585.2
618.723	584.6
619.136	613.2
619.549	587.8
619.962	598.4
620.375	577.4
620.788	587.2
621.201	580.4
621.614	580
622.028	587
622.441	579.6
622.854	601.4
623.268	581.2
623.681	581
624.095	588.6
624.509	596.4
624.922	590.2
625.336	574.4
625.728	585.8
626.142	588.4
626.556	595.6
626.97	589.8
627.384	582.4
627.799	589.8
628.213	595.2
628.627	587.8
629.041	583.8
629.456	578
629.87	582.4
630.285	586.4
630.699	589.8
631.093	585
631.507	586.8
631.922	584.4
632.337	594
632.752	575.4
633.167	586
633.582	581.4
633.997	582.4
634.412	587.6
634.806	585.8
635.221	574.8
635.637	585.2
636.052	571.6
636.468	576.8
636.883	593.4
637.299	582.8
637.715	572.2
638.109	577.6
638.525	572.6
638.941	588.6
639.357	584
639.773	589
640.189	575.8
640.584	578.8
641	575.2
641.416	566.6
641.832	584.4
642.249	580.2
642.665	580.4
643.06	581.8
643.477	597
643.894	566.6
644.31	570.6
644.727	579.4
645.123	585
645.54	575.2
645.957	577
646.374	593
646.77	583.8
647.187	608.8
647.604	582.2
648.021	568.4
648.439	579
648.835	585.6
649.252	585.2
649.67	582
650.088	581.2
650.484	581.6
650.902	587.8
651.32	587
651.738	579.6
652.134	587.2
652.552	595.4
652.971	588.6
653.389	577.8
653.786	580.6
654.204	595.6
654.622	575.6
655.019	589.8
655.438	584.4
655.857	578.6
656.275	583.2
656.673	579.6
657.091	578.6
657.51	573.6
657.908	584.8
658.327	595.8
658.746	572
659.144	580
659.563	588.2
659.982	582.6
660.38	571.2
660.8	584.4
661.219	593.6
661.617	584.4
662.037	579.2
662.457	594
662.855	565
663.275	601.2
663.695	581
664.094	586
664.514	579.6
664.934	579.4
665.333	581.4
665.753	579.4
666.152	579.4
666.572	573.4
666.993	588.4
667.392	577.6
667.812	575
668.212	580.4
668.632	587.6
669.053	581.8
669.453	582.6
669.874	580.6
670.273	586.8
670.694	580.8
671.116	590
671.515	590
671.937	586.8
672.337	577.4
672.758	577
673.158	582.8
673.58	570
673.98	584
674.402	588.8
674.824	581.8
675.224	574.6
675.646	577.8
676.047	578.2
676.469	586.4
676.869	585.2
677.292	581.8
677.693	581.2
678.115	573.2
678.516	583.8
678.939	583.6
679.34	582.4
679.762	585.6
680.164	588.4
680.586	573.8
680.988	586.6
681.411	601.8
681.812	569.8
682.236	571.2
682.637	581.2
683.061	570
683.462	585.8
683.864	579.6
684.288	586.2
684.69	574.6
685.114	586.4
685.516	590.4
685.94	574.8
686.342	592.8
686.766	576.8
687.168	571.6
687.571	602.2
687.995	584.8
688.398	567
688.822	576
689.225	590.6
689.628	595
690.052	579.6
690.456	590.8
690.88	571.8
691.284	569.2
691.687	582
692.112	570.4
692.515	566.4
692.919	573.4
693.344	574.2
693.747	568
694.173	578.4
694.577	582.6
694.98	574.6
695.406	581.6
695.81	575.8
696.214	576.4
696.64	581.2
697.044	577.6
697.448	588.8
697.874	579.2
698.279	582
698.684	566.2
699.11	572.4
699.514	568.8
699.919	576.8
700.324	568.4
700.75	574
701.156	570.8
701.561	587.4
701.987	583
702.393	587.6
702.798	593.2
703.203	576.4
703.63	575.4
704.036	572
704.442	583.8
704.847	565.6
705.274	579.6
705.68	574.2
706.086	580.6
706.492	573.4
706.92	578.8
707.326	589.6
707.732	583.4
708.139	569.6
708.545	562.6
708.973	577.2
709.38	585.8
709.786	570.2
710.193	596.8
710.6	581.6
711.028	574.2
711.435	576.2
711.842	576.2
712.249	571.2
712.656	583.8
713.064	583
713.492	569.4
713.9	572
714.307	579.4
714.715	587.2
715.123	580.2
715.53	585.6
715.938	583.6
716.367	585.4
716.775	571.2
717.184	572
717.592	565
718	586.4
718.408	602.6
718.816	621.2
719.225	581.6
719.633	576.4
720.042	573.6
720.472	574
720.881	591
721.29	575
721.699	566.4
722.108	576.6
722.517	578.8
722.926	578.8
723.335	585.8
723.744	574.8
724.154	581
724.563	570.8
724.973	578.4
725.382	581.8
725.792	564.6
726.202	568.8
726.612	593.2
727.022	569.8
727.432	572.2
779.813	576.4
780.223	621.4
780.634	571.4
781.044	563.6
781.454	578.8
781.865	587.4
782.276	575.6
782.686	578.4
783.097	577.4
783.508	568.8
783.919	577
784.33	589.4
784.741	587.2
785.152	570.2
785.563	569.6
785.974	563.8
786.386	575.2
786.776	571.4
787.188	574.6
787.599	572.4
788.011	586
788.423	578
788.835	571.2
789.247	570.8
789.659	572.4
790.071	563.4
790.483	608.2
790.874	577.6
791.286	577.4
791.699	574.8
792.111	581.2
792.524	572.6
792.937	579.8
793.349	568.8
793.741	561.4
794.154	566
794.567	590.4
794.98	573.8
795.393	569.8
795.785	587.2
796.198	577
796.612	573
797.026	572.4
797.439	572
797.831	571.6
798.245	569.6
798.659	571.6
799.073	569
799.487	579
799.88	584.2
800.294	573.6
800.708	584.6
801.123	573
801.516	598.8
801.93	566.6
802.345	566.6
802.76	575.6
803.153	586
803.568	593.8
803.983	584.6
804.377	579.8
804.792	566.2
805.207	560.8
805.601	574
806.016	606.4
806.432	560
806.826	597.8
807.242	589.8
807.658	581
808.052	570.6
808.468	566.6
808.884	570.8
809.279	583
809.695	594.8
810.111	599
810.506	575.4
810.922	595.8
811.339	572
811.734	582.2
812.151	565.2
812.546	573.4
812.963	572.2
813.38	578
813.776	569.6
814.193	605.2
814.589	572.2
815.006	576
815.402	569.4
815.82	571.8
816.237	577.4
816.633	579.8
817.051	573.2
817.448	571.4
817.866	567.4
818.262	594.6
818.68	575.2
819.077	570.8
819.495	577.2
819.892	608.6
820.311	575.2
820.708	568.6
821.127	568.6
821.524	582.2
821.943	572
822.34	597.8
822.759	577.6
823.157	570.6
823.576	593.4
823.974	585.2
824.393	613.6
824.791	575.6
825.189	572.8
825.609	571.6
826.007	583.4
826.427	567.4
826.826	572.4
827.246	575
827.644	569
828.043	581.8
828.463	576.8
828.862	583.4
829.261	575.8
829.682	565
830.081	575.8
830.502	569.2
830.901	581
831.301	583
831.722	570.6
832.121	576.4
832.521	566.2
832.943	579.4
833.342	570.4
833.742	564.6
834.164	577.4
834.564	570.4
834.965	568.8
835.386	579
835.787	570.6
836.188	576.6
836.588	571.4
837.01	565.6
837.411	560.2
837.812	583.6
838.213	568.8
838.636	563.8
839.037	640.2
839.438	578.6
839.84	567
840.263	584
840.664	575.4
841.066	562.8
841.468	571
841.891	561.2
842.293	580.8
842.695	570.8
843.098	585.8
843.5	574.4
843.902	578.8
844.326	574.8
844.729	576.6
845.131	581.4
845.534	566.4
845.937	569.6
846.34	594.8
846.764	572.8
847.167	572
847.571	574.6
847.974	568
848.377	568.8
848.781	612
849.184	586.4
849.588	565.6
849.992	574
850.396	577.4
850.821	588.8
851.225	581.6
851.63	576.8
852.034	589.2
852.438	570.4
852.843	643.4
853.247	571.4
853.652	572
854.057	588
854.462	583
854.867	582.2
855.272	606.4
855.677	580.8
856.082	565.4
856.487	566
856.893	574.4
857.298	576.8
857.704	572
858.11	571.6
858.516	587
858.922	577.4
859.328	583.4
859.734	572.2
860.14	578.2
860.525	582.4
860.931	569.6
861.338	568.2
861.745	568.2
862.151	579.8
862.558	578.8
862.965	559
863.372	574
863.779	579.8
864.186	593.6
864.572	569.8
864.98	589.6
865.387	597.2
865.795	560
866.203	584.6
866.61	568.2
867.018	577.8
867.405	581.4
867.813	574
868.221	566.8
868.63	569.6
869.038	581.4
869.425	597
869.834	576.2
870.243	568
870.652	570.4
871.039	569.6
871.448	569.8
871.857	582.6
872.266	570.6
872.654	572
873.064	570.6
873.473	575.6
873.883	563.2
874.271	569.2
874.681	583.4
875.091	563.2
875.48	579.4
875.89	590
876.3	573.6
876.689	556.4
877.1	562.6
877.51	569.2
877.9	599.6
878.31	564.6
878.721	597.2
879.111	568
879.522	570.4
879.933	558.6
880.323	561
880.734	569.2
881.125	566.6
881.536	559.4
881.948	566.2
882.338	563.6
882.75	586.2
883.141	563.4
883.553	574
883.944	587.2
884.356	583.2
884.769	562.8
885.16	572.2
885.573	576.8
885.964	560.4
886.377	567.4
886.768	563.4
887.181	569.4
887.573	562.8
887.987	574.4
888.378	582.6
888.792	567.4
889.184	617.2
889.598	565.2
889.99	576.6
890.383	569.6
890.797	562.6
891.19	575.2
891.604	573.2
891.997	563.4
892.411	564.8
892.805	564
893.198	563.8
893.613	563.4
894.006	569.6
894.421	567.8
894.815	568
895.209	569.4
895.624	610
896.018	588
896.412	567.2
896.828	573.2
897.222	577.6
897.617	567.2
898.033	599.4
898.427	570.8
898.822	566.8
899.239	567.2
899.634	570.8
900.029	589.2
900.424	558.6
900.841	558
901.236	583
901.632	573.8
902.027	617.4
902.445	573.6
902.841	574.4
903.237	573
903.633	580.2
904.05	573.8
904.447	580.4
904.843	582.6
905.24	572.8
905.636	566.4
906.033	572.2
906.451	579
906.848	566.8
907.246	562.6
907.643	569
908.04	575.8
908.438	583
908.835	575.6
909.254	571.8
909.652	576.2
910.05	562.6
910.448	565.2
910.846	575
911.244	562.2
911.643	575.4
912.041	569.4
912.44	594.8
912.839	561.8
913.237	569.8
913.636	572.4
914.035	580
914.434	571.4
914.834	580.6
915.233	582.2
915.633	571.6
916.032	564.4
916.432	570.6
916.832	582.6
917.232	571.8
917.632	559
918.032	582.6
918.432	570
918.833	568.6
919.233	570.2
919.634	568.2
920.035	575.8
920.436	564.2
920.837	567.6
921.238	566
921.639	571.2
922.019	576.4
922.42	579.2
922.822	568
923.224	572.2
923.625	570.8
924.027	562.2
924.429	585.8
924.81	578.4
925.212	581
925.615	575.8
926.017	567
926.42	579.4
926.801	567.8
927.204	572.4
927.607	575.8
928.01	583.6
928.413	573
928.795	560
929.199	567.4
929.602	563.4
930.006	567.6
930.388	562.2
930.792	566.6
931.196	576
931.579	603
931.983	562.4
932.388	607.4
932.771	568.4
933.176	553.2
933.58	575
933.964	576.2
934.369	564.2
934.774	569
935.158	569.4
935.563	564.8
935.947	573
936.353	575.6
936.759	565.4
937.143	563.6
937.549	565.4
937.934	578.6
938.34	577.2
938.746	561.6
939.131	574.6
939.538	566
939.923	581.4
940.33	569.4
940.716	575.4
941.123	570.2
941.508	581.4
941.916	587
942.302	570
942.709	560
943.096	563.4
943.503	573.4
943.89	564.8
944.298	568.6
944.685	592.8
945.072	573.6
945.48	583.4
945.867	557.4
946.276	566.4
946.663	588.4
947.051	579.8
947.46	578.2
947.848	580.2
948.257	566.6
948.645	579.2
949.033	567.2
949.443	559.6
949.831	608
950.22	562.6
950.63	575.4
951.018	603.4
951.407	570.8
951.796	564.4
952.207	573.6
952.596	575.8
952.985	562.2
953.375	602.6
953.786	568.6
954.176	560.4
954.566	574.4
954.956	566.2
955.367	566.4
955.758	587.6
956.148	564.2
956.539	581.6
956.929	566.2
957.341	554.4
957.732	565
958.123	575.6
958.515	562.6
958.906	565.4
959.297	566.8
959.689	562
960.102	568.6
960.494	571.6
960.886	567
961.278	571
961.67	592
962.062	600.8
962.455	571.8
962.847	567.6
963.24	564
963.633	577.2
964.026	561
964.419	571.8
964.812	567.4
965.206	563
965.599	578
965.993	570.4
966.386	567.2
966.78	575.2
967.174	576.2
967.569	562.4
967.963	561.6
968.357	564.2
968.752	567.2
969.146	566.6
969.541	557.8
969.936	564.2
970.331	567.8
970.705	568.6
971.1	565
971.496	577.6
971.892	560.8
972.287	573
972.683	567.2
973.079	560.6
973.454	582.8
973.85	562.8
974.247	573
974.643	582.4
975.04	571
975.415	562.8
975.812	563.2
976.209	568.4
976.607	557.6
976.982	576.8
977.38	583
977.778	570.4
978.175	568.4
978.552	566.8
978.95	570
979.348	567.4
979.725	608.6
980.123	574
980.522	565.6
980.899	567.2
981.298	568.6
981.697	572.8
982.075	572
982.474	569.4
982.852	572.2
983.251	576.8
983.651	570.6
984.029	566.6
984.429	565.4
984.808	564.2
985.208	567
985.609	564
985.987	563.6
986.388	553.8
986.768	569.4
987.168	570.4
987.548	568.6
987.949	582.4
988.329	580
988.731	551
989.111	564.2
989.491	572.6
989.893	573.6
990.273	578
990.676	567.6
991.057	558.4
991.459	562
991.84	565.4
992.221	554.4
992.624	578.8
993.006	575
993.388	573
993.791	571.6
994.173	571.6
994.576	598.4
994.959	558.4
995.341	557.2
995.724	564.8
996.128	567.8
996.511	573.2
996.894	562.8
997.298	564
997.681	572.8
998.065	566.6
998.448	567.2
998.854	569
999.237	553.4
999.621	579.6
1000.01	584.8
1000.39	569
1000.8	566
1001.18	571
1001.56	571.6
1001.95	569.8
1002.33	574.4
1002.72	562
1003.13	564.4
1003.51	554.4
1003.9	569.6
1004.28	574.4
1004.67	557.8
1005.06	571.4
1005.44	596.4
1005.83	557.4
1006.21	573.4
1006.6	569.2
1006.99	577
1007.37	575.8
1007.76	565.8
1060.12	559.4
1060.51	560.4
1060.89	575.4
1061.28	582
1061.67	572.6
1062.06	569
1062.45	573.2
1062.83	563.2
1063.22	575.6
1063.61	601
1064	569.8
1064.39	568.2
1064.78	568.8
1065.14	579
1065.53	568.8
1065.92	566.6
1066.31	572.2
1066.7	577.4
1067.09	585.2
1067.46	586.4
1067.85	569.2
1068.24	561.2
1068.63	574
1069.02	569.6
1069.39	573.8
1069.78	572
1070.17	569
1070.57	553.2
1070.93	576
1071.33	566.6
1071.72	571
1072.11	564.2
1072.48	565.8
1072.87	560.4
1073.26	563.4
1073.64	566
1074.03	569.2
1074.4	560.6
1074.79	557.8
1075.19	565.6
1075.56	577.2
1075.95	568.6
1076.34	561
1076.72	563.2
1077.11	568
1077.48	574.6
1077.88	563.8
1078.25	555.2
1078.64	577.4
1079.02	572.2
1079.41	572.6
1079.78	557.4
1080.18	554.6
1080.55	620.4
1080.95	567
1081.32	561.2
1081.72	572.8
1082.09	564.6
1082.49	559.2
1082.86	565.6
1083.24	556.8
1083.63	554
1084.01	566
1084.38	568
1084.78	553.2
1085.16	567.2
1085.55	582.4
1085.93	580.4
1086.31	562.8
1086.7	597
1087.08	563.2
1087.46	565.2
1087.83	562.4
1088.23	568
1088.61	569.2
1088.99	561.4
1089.36	565
1089.76	573.6
1090.14	565.8
1090.52	570.2
1090.9	561.6
1091.27	574.2
1091.67	595.6
1092.05	572.2
1092.43	561.2
1092.81	576.4
1093.19	567.8
1093.57	560.8
1093.95	560.2
1094.35	572.4
1094.73	576.4
1095.11	561.2
1095.49	564.8
1095.87	567.2
1096.25	580.4
1096.63	571.6
1097.01	568.4
1097.39	567.6
1097.77	562.4
1098.15	570.8
1098.53	558
1098.91	563.6
1099.29	565.4
1099.68	586.2
1100.06	574.4
1100.44	562
1100.82	560.8
1101.18	570.2
1101.56	558.4
1101.95	565
1102.33	568.4
1102.71	567
1103.1	550.8
1103.48	549.4
1103.86	560.8
1104.22	569.2
1104.61	560.2
1104.99	553.4
1105.38	561
1105.76	566.6
1106.12	559.8
1106.51	593
1106.89	570.2
1107.26	567.4
1107.64	570
1108.03	564
1108.41	561
1108.78	579.8
1109.16	565.4
1109.55	577.8
1109.91	556.8
1110.3	545.2
1110.69	567.8
1111.05	557.2
1111.44	565.4
1111.8	558.8
1112.19	564.6
1112.58	566.4
1112.94	563
1113.33	556.8
1113.7	559.6
1114.09	556.6
1114.45	560.2
1114.84	572.2
1115.21	575.8
1115.6	559.4
1115.96	566.2
1116.35	571.4
1116.72	564.2
1117.11	570.8
1117.48	559.8
1117.85	565
1118.24	581
1118.6	570
1118.99	560.4
1119.36	568.4
1119.73	563.4
1120.12	564.6
1120.49	556.2
1120.86	569.6
1121.25	566.6
1121.62	556.6
1121.99	563.8
1122.38	580.2
1122.76	570.8
1123.13	555.6
1123.5	571
1123.89	576.2
1124.26	560.2
1124.63	563.2
1125	567.4
1125.4	556.8
1125.77	561.2
1126.14	545.6
1126.51	564.8
1126.88	569.6
1127.26	562.8
1127.63	549
1128.02	567.4
1128.4	559
1128.77	569.2
1129.14	563.8
1129.52	572.4
1129.89	566.6
1130.26	564.6
1130.64	558.8
1131.01	570
