#lambda/nm	C1
208.295	533.8
208.67	483.2
209.045	444.2
209.419	444
209.794	612
210.169	588.4
210.544	699
210.919	623.4
211.295	599
211.67	608
212.045	604.8
212.421	604
212.796	642.8
213.172	602
213.547	599.8
213.923	608
214.299	600
214.675	608.4
215.051	612.8
215.427	612.2
215.803	626.2
216.179	610
216.555	600.2
216.932	614.6
217.308	599.6
217.684	611.2
218.061	611.8
218.438	610.6
218.814	601
219.191	611
219.568	595
219.945	602.8
220.322	618.8
220.699	607.8
221.076	603.2
221.453	611.4
221.83	594.6
222.208	601.6
222.585	607.4
222.962	606.8
223.34	610.4
223.717	615
224.095	595.6
224.473	602.4
224.851	594.6
225.229	598.8
225.607	613.8
225.985	601
226.363	601.2
226.741	601.4
227.119	599.8
227.497	618.8
227.876	593.2
228.254	609.2
228.633	611
229.011	610.8
229.39	612.2
229.769	613.2
230.148	616.6
230.527	629.6
230.905	607.4
231.284	611
231.664	600.8
232.043	618.8
232.422	610
232.801	604.4
233.181	611.2
233.56	610.2
233.94	601.6
234.319	592.2
234.699	599.2
235.079	642
235.458	641.2
235.838	620
236.218	597
236.598	584.4
236.978	597.6
237.358	599.8
237.738	593
238.119	610.2
238.499	599.4
238.88	608.4
239.26	625.4
239.641	600
240.021	598.8
240.402	603
240.783	612.6
241.163	598.2
241.544	604.2
241.925	607.4
242.306	626.4
242.687	604
243.069	607.8
243.45	621.8
243.831	602
244.212	609.6
244.594	643.4
244.975	616.2
245.357	617
245.739	598.4
246.12	608.6
246.502	612.8
246.884	602.8
247.266	603.2
247.648	607.4
248.03	620.8
248.412	601.4
248.794	615
249.176	604
249.559	609.6
249.941	594.4
250.323	595
250.706	600.2
251.089	609.4
251.471	608.2
251.854	608.4
252.237	602.2
252.62	616
253.002	603.8
253.385	609
253.769	619.6
254.152	606.4
254.535	616.8
254.918	601.8
255.301	607.4
255.685	602
256.068	599.8
256.452	629
256.835	624
257.219	605.8
257.603	609.4
257.986	603
258.37	604.6
258.754	595
259.138	611.6
259.522	609.8
259.906	602.8
260.29	614.8
260.675	614
261.059	614.6
261.443	602.2
261.828	613.4
262.212	605
262.597	601.6
262.981	600.2
263.366	616.8
263.751	613.8
264.136	610
264.521	604
264.906	602.8
265.291	614.6
265.676	599.2
266.061	607.6
266.446	621.6
266.831	607
267.217	628.2
267.602	603.2
267.987	608.2
268.373	602.6
268.759	614
269.144	614.6
269.53	605.4
269.916	601.8
270.302	602.6
270.688	602
271.074	604.8
271.46	619.6
271.846	634
272.232	604.6
272.618	596
273.004	604
273.391	617.8
273.777	620.6
274.164	618
274.55	618
274.937	606.6
275.324	604.8
275.71	614
276.097	608.2
276.484	598
276.871	611.2
277.258	609
277.645	596.8
278.032	600.6
278.419	598.4
278.807	610.2
279.194	598.8
279.581	597.6
279.969	608.8
280.356	606
280.744	610.6
281.131	622
281.519	613
281.907	601.2
282.295	594.8
282.682	615.6
283.07	609
283.458	614.4
283.846	626.4
284.235	621.4
284.623	605.2
285.011	606.8
285.399	601.6
285.788	606
286.176	599.4
286.565	618.2
286.953	592.6
287.342	605.8
287.731	599.6
288.119	601.2
288.508	607.4
288.897	601.4
289.286	597.4
289.675	612
290.064	613.6
290.453	602
290.821	610.2
291.21	613.2
291.599	597.2
291.989	611.6
292.378	612.2
292.768	623.4
293.157	610.6
293.547	613.2
293.936	602.4
294.326	603.2
294.716	616.6
295.106	603.8
295.496	611.8
295.886	615.4
296.276	607.2
296.666	601.8
297.056	595.6
297.446	593
297.836	628.2
298.227	604
298.617	604.8
299.008	620.4
299.398	611.8
299.789	597
300.179	606.6
300.57	623.4
300.961	610.8
301.352	605.2
301.742	613.2
302.133	598.6
302.524	610.8
302.915	604.6
303.307	594.8
303.698	611.2
304.089	616.6
304.48	599
304.872	603.6
305.263	599.2
305.655	602.4
306.046	605.4
306.438	605.6
306.829	594.6
307.221	617.6
307.613	615.6
308.005	617.6
308.397	619.6
308.789	627.2
309.181	630.8
309.573	620.2
309.965	609.6
310.357	600.8
310.749	617.6
311.142	604.8
311.534	596.6
311.926	612.8
312.319	609.2
312.711	601.8
313.104	617.2
313.497	607.8
313.889	642
314.282	627.8
314.675	628.6
315.068	604.2
315.461	618.4
315.854	637.2
316.247	613.2
316.64	601
317.033	614.4
317.405	622.6
317.798	609.8
318.192	613.8
318.585	598.2
318.979	614.6
319.372	596.4
319.766	609.4
320.16	614.8
320.553	613.8
320.947	625.8
321.341	603
321.735	605
322.129	594.2
322.523	625.4
322.917	604.6
323.311	612.6
323.705	611.6
324.099	608.8
324.494	614.2
324.888	620.6
325.282	601
325.677	616.6
326.071	608.8
326.466	616.4
326.861	614.2
327.255	618
327.65	615.8
328.045	619.4
328.44	613.4
328.835	615.8
329.23	596.6
329.625	624.8
330.02	599.2
330.415	620.8
330.81	611.2
331.206	610.4
331.601	602.2
331.996	610
332.37	625.4
332.766	597.8
333.161	622
333.557	606
333.953	607.2
334.348	946.4
334.744	625.4
335.14	604
335.536	598
335.932	612.8
336.328	613.8
336.724	617.8
337.12	605.8
337.516	611
337.913	608
338.309	617.6
338.705	611.2
339.102	615.4
339.498	601.6
339.895	616.6
340.291	604.2
340.688	607.8
341.085	602.2
341.481	608.8
341.878	608.8
342.275	618
342.672	599
343.069	594.8
343.466	599.4
343.842	613.8
344.239	602.2
344.636	607
345.033	603.4
345.431	597.6
345.828	609.4
346.225	589.2
346.623	636.8
347.02	605.4
347.418	611.6
347.816	610.4
348.213	595
348.611	616
349.009	596.6
349.407	617.4
349.805	597
350.203	589.6
350.601	617.4
350.999	588.8
351.397	647
351.795	609.2
352.193	615.8
352.57	617
352.969	614.6
353.367	597
353.766	597.6
354.164	605.2
354.563	616.2
354.961	609.4
355.36	594.4
355.759	601.2
356.158	601.6
356.557	606.8
356.956	593
357.355	593.8
357.754	607
358.153	617.6
358.552	622.6
358.951	603.6
359.35	608.6
359.75	606
360.149	607
360.527	592.4
360.926	601.6
361.326	606.4
361.726	601
362.125	601.2
362.525	605.8
362.925	601.2
363.325	603
363.724	607.6
364.124	603
364.524	593.8
364.924	598.6
365.324	607.6
365.725	586.8
366.125	606.8
366.525	599.6
366.904	601
367.304	584.2
367.705	615.2
368.105	613
368.506	596
368.906	607
369.307	598.2
369.708	603.8
370.108	595
370.509	621
370.91	595.2
371.311	597.4
371.712	612.6
372.113	594.6
372.514	590.2
372.894	599.6
373.295	591.6
373.696	611.2
374.097	604
374.499	621
374.9	598.6
375.301	593.4
375.703	608.4
376.105	592.6
376.506	604
376.908	606.2
377.309	603.6
377.711	606
378.113	595
378.493	603.2
378.895	601.8
379.297	606.6
379.699	577.8
380.102	604.4
380.504	599.4
380.906	598
381.308	618
381.71	597.2
382.113	606.2
382.515	594
382.918	608.4
383.299	598.6
383.701	601.2
384.104	611.6
384.507	589.8
384.909	596.4
385.312	606
385.715	592
386.118	601
386.521	592.6
386.924	614
387.327	592
387.709	583
388.112	585.2
388.515	591.6
388.918	598.6
389.322	608
389.725	601.6
390.129	611
390.532	612.4
390.936	598.4
391.339	589.4
391.743	601.2
392.125	593.4
392.529	604
392.933	608.4
393.337	603.6
393.74	597
394.144	597.6
394.548	590
394.953	599.8
395.357	601.8
395.761	593.4
396.144	598.4
396.548	601.6
396.952	606
397.357	597
397.761	599
398.166	592.8
398.57	603.2
398.975	588.4
399.379	600
399.763	638
400.168	593.4
400.572	586
400.977	589
401.382	617
401.787	613.2
402.192	617
402.597	611.2
403.002	591.2
403.386	600.8
403.791	615.2
404.197	586.8
404.602	606.4
405.007	599
405.413	596.6
405.818	602.2
406.224	594.8
406.608	599.6
407.014	584.4
407.42	604.2
407.825	595.4
408.231	609.4
408.637	599.6
409.043	616.6
409.449	599.4
409.834	596.6
410.24	599.2
410.646	610.4
411.052	611.8
411.458	605.8
411.865	610.2
412.271	610.4
412.677	604
413.062	605.6
413.469	590
413.875	618
414.282	614.4
414.689	596
415.095	603
415.502	590.2
415.888	600.8
416.294	587.6
416.701	640
417.108	590
417.515	598.8
417.923	598.2
418.33	620.6
418.715	600.2
419.123	599
419.53	595.4
419.937	598.6
420.345	607.4
420.752	598.8
421.16	610.6
421.546	601.4
421.953	610.8
422.361	592.4
422.769	595.8
423.177	596
423.585	628.2
423.992	614.4
424.379	607.6
424.787	617.4
425.195	620.6
425.603	611.2
426.011	612.2
426.419	616.4
426.806	604
427.214	601.4
427.623	613
428.031	616.2
428.44	604.6
428.848	607.8
429.235	617
429.644	604.6
430.053	601.2
430.461	624.6
430.87	626.8
431.279	613.2
431.666	600.8
432.075	603.2
432.484	606
432.893	598.2
433.302	619.8
433.711	644.4
434.099	608.8
434.508	599.4
434.918	593.6
435.327	609.8
435.737	602
436.125	602.6
436.534	597.2
436.944	607.2
437.353	609
437.763	621.2
438.173	590.2
438.561	612.4
438.971	588.8
439.381	606
439.791	604.2
440.201	576.8
440.589	595.2
440.999	605.2
441.409	600.4
441.819	589.6
442.23	610.6
442.619	611.6
443.029	591.6
443.439	599.2
443.85	597.4
444.26	606.8
444.649	607
445.06	597.2
445.471	594
445.881	601.8
446.292	611.8
446.682	614.4
447.092	585.2
447.503	645.6
447.914	595
448.325	597.8
448.715	598.8
449.126	589
449.537	594.4
449.948	599.8
450.338	594.8
450.75	604.8
451.161	599.8
451.572	604.8
451.984	590.6
452.374	587.8
452.786	596.4
453.197	602.2
453.609	604.4
453.999	583.8
454.411	579.6
454.823	607.6
455.235	599.4
455.647	586.2
456.037	600.8
456.449	578.4
456.862	595.4
457.274	601.4
457.665	590.6
458.077	596.4
458.489	620.2
458.902	595.4
459.293	598.2
459.705	592
460.118	589
460.53	599.8
460.921	594.6
461.334	593.2
461.747	588.6
462.16	606.2
462.551	611.4
462.964	595
463.377	589.2
463.79	595.8
464.182	603
464.595	592.6
465.008	597.8
465.421	596.4
465.813	595.6
466.226	602.6
466.64	591.6
467.053	635.6
467.445	600.8
467.859	611
468.272	597.4
468.686	608.2
469.078	596.2
469.492	582
469.906	592.6
470.298	602.8
470.712	589.2
471.126	638.2
471.54	577.2
471.933	592.4
472.347	592.8
472.761	590.4
473.175	597.2
473.568	591
473.982	588
474.397	593.2
474.79	595.8
475.204	605.8
475.619	587.4
476.033	587
476.426	592.4
476.841	596.4
477.256	612
477.649	593
478.064	586.8
478.479	588.6
478.872	586.6
479.287	578.2
479.702	580.6
480.118	600.6
480.511	594.4
480.927	589.4
481.342	587.4
481.736	597
482.151	587.8
482.566	603.8
482.96	593.4
483.376	599.4
483.792	586
484.186	597.4
484.602	592.8
485.017	600.4
485.412	600
485.827	593.8
486.243	586.2
486.638	614.4
487.054	597
487.47	601
487.865	596.4
488.281	584
488.697	590.8
489.092	590
489.508	577.4
489.925	607.6
490.32	587.8
490.736	594
491.153	592.2
491.548	594.2
491.964	600.2
492.381	581
492.776	600.2
493.193	599.6
493.61	600.4
494.006	595.6
494.422	606.6
494.84	587.2
495.235	598.2
495.652	589.8
496.069	594.8
496.465	584
496.883	586.2
497.3	606.8
497.696	589
498.113	600.6
498.509	581.6
498.927	583.6
499.344	579
499.741	584.2
500.158	598.4
500.576	598
500.973	597.2
501.39	578.8
501.787	586.6
502.205	599.4
502.623	585
503.02	578.2
503.438	584.4
503.856	582.6
504.253	588.4
504.671	596.2
505.068	578.4
505.486	585.4
505.905	605.6
506.302	582.4
506.72	598.6
507.118	588.4
507.536	596
507.955	600.2
508.352	592.8
508.771	601.8
509.169	599.8
509.587	582.2
510.006	591
510.404	582
510.823	589.8
511.221	588.6
511.64	585.2
512.038	597
512.457	587.4
512.877	595
513.275	584.8
513.694	586.6
514.092	585.6
514.512	597
514.91	593.6
515.33	594.2
515.749	591.4
516.148	589.8
516.568	591.4
516.966	591.6
517.386	586.4
517.785	587.2
518.205	585.4
518.603	577
519.024	578.2
519.444	589.8
519.843	597
520.263	595.2
520.662	590.8
521.082	587.6
521.481	588.4
521.902	590.4
522.301	588
522.722	585.8
523.121	576.8
523.542	587.4
523.963	587.2
524.362	576.8
524.783	595.6
525.183	589
525.604	586.4
526.003	588
526.425	593
526.824	584.2
527.246	598
527.646	592
528.067	586.2
528.467	587.2
528.888	594.6
529.289	587.2
529.71	593.8
530.11	586.2
530.532	595.2
530.932	591
531.354	587.8
531.755	624
532.176	599.8
532.577	591.6
532.999	596
533.4	586.8
533.822	603.8
534.223	598.2
534.645	591.4
535.046	590.2
535.468	583.4
535.869	600.6
536.292	598.4
536.693	625.4
537.115	594.4
537.516	585
537.939	588.2
538.34	605.2
538.742	591.4
539.165	587.8
539.566	589.6
539.989	578.6
540.391	586.8
540.814	592.8
541.216	590.2
541.639	592.2
542.041	597.2
542.464	583
542.866	584.6
543.268	580.8
543.691	589.4
544.093	588.2
544.517	607.2
544.919	585.8
545.343	607
545.745	589.8
546.147	597.8
546.571	580.8
546.974	583.2
547.398	593
547.8	602.6
548.224	581.8
548.627	586.2
549.03	589.6
549.454	586.6
549.857	582
550.281	582.8
550.684	577
551.087	596.4
551.512	587.2
551.915	597.2
552.34	577.4
552.743	579.4
553.146	592.2
553.571	580
553.975	605
554.399	585.6
554.803	632.6
555.207	581.6
555.632	575.8
556.036	587.2
556.461	573
556.865	580.4
557.268	582
557.694	584.6
558.098	591.8
558.502	589.6
558.927	591.2
559.332	588.8
559.736	588.6
560.162	597.4
560.566	588.6
560.992	597.2
561.396	591.8
561.801	587.2
562.227	590.2
562.631	582
563.036	580.8
563.462	596.2
563.867	592.6
564.272	579.4
564.698	589.2
565.103	573.2
565.508	609.6
565.935	580
566.34	581
566.745	599.4
567.172	593
567.577	602.8
567.982	591
568.409	591.8
568.815	575.6
569.22	583.8
569.626	594
570.053	575.2
570.459	595.6
570.865	595
571.292	593.2
571.698	593.8
572.104	581
572.531	581.4
572.937	594.6
573.343	587
573.75	588.8
574.177	585.2
574.583	596.8
574.99	579.6
575.396	592.8
575.824	587.6
576.231	596.6
576.637	580.2
577.065	609.2
577.472	585
577.879	581.2
578.286	595.2
578.714	581
579.121	580.4
579.528	590.4
579.935	593.4
580.364	590.8
580.771	570.8
581.178	582.2
581.585	586.2
582.014	589.6
582.421	577.2
582.829	583.2
583.236	592.8
583.644	582.8
584.073	584
584.481	590.6
584.889	586.2
585.296	590
585.726	586.4
586.134	581.2
586.542	578.2
586.95	601
587.358	583.4
587.787	586.2
588.196	590.2
588.604	578
589.012	589.8
589.421	580
589.851	577
590.259	597.8
590.668	584
591.076	625.2
591.485	579.4
591.894	587.6
592.324	597.6
592.733	602
593.142	575
593.551	576.2
593.96	589.6
594.369	568.4
594.8	572.4
595.209	584
595.618	565.2
596.028	584.6
596.437	577
596.847	583.2
597.256	582.4
597.687	581.2
598.097	580.4
598.507	569.8
598.917	580.6
599.327	590
599.736	589.2
600.146	592
600.556	583.2
600.988	591.8
601.398	576.6
601.808	599.6
602.219	574.2
602.629	579.8
603.039	585.6
603.45	606.2
603.86	581
604.271	603.8
604.703	581.4
605.114	585.8
605.525	592
605.935	592.2
606.346	615
606.757	590
607.168	589.8
607.579	579.8
607.99	587
608.402	589
608.813	597.2
609.224	586.6
609.636	583
610.047	579.2
610.48	578.8
610.892	590
611.303	589
611.715	582.8
612.127	574.6
612.539	584.2
612.95	584
613.362	574.8
613.774	575.4
614.186	577.2
614.599	575.4
615.011	588.8
615.423	588.6
615.835	578
616.248	588.4
616.66	585.2
617.073	577
617.485	577.2
617.898	589.8
618.311	586
618.723	578.4
619.136	615.6
619.549	600.6
619.962	605.6
620.375	571.8
620.788	586.4
621.201	575.2
621.614	588.6
622.028	584
622.441	585.6
622.854	592.2
623.268	576.6
623.681	584.4
624.095	579.4
624.509	592.2
624.922	588.6
625.336	569
625.728	591.6
626.142	601.2
626.556	598.8
626.97	583.8
627.384	576.4
627.799	578.2
628.213	592
628.627	581.4
629.041	581.4
629.456	589
629.87	583.4
630.285	597.8
630.699	598.2
631.093	583.2
631.507	595
631.922	594.4
632.337	594.4
632.752	573.6
633.167	590
633.582	579.8
633.997	584.6
634.412	581.6
634.806	585.4
635.221	583.6
635.637	587.4
636.052	568.6
636.468	588.6
636.883	603
637.299	582.2
637.715	573.4
638.109	579
638.525	573.2
638.941	590.8
639.357	593.4
639.773	592.2
640.189	578
640.584	583.6
641	584
641.416	575.4
641.832	584.2
642.249	580.4
642.665	584.2
643.06	587
643.477	588.4
643.894	571
644.31	576.6
644.727	580.2
645.123	581.2
645.54	574.2
645.957	590.6
646.374	597.8
646.77	579.8
647.187	614.4
647.604	580.4
648.021	568.4
648.439	579.4
648.835	587
649.252	581.6
649.67	583.4
650.088	578.4
650.484	573
650.902	587.6
651.32	584.6
651.738	587
652.134	580.8
652.552	593.6
652.971	593.2
653.389	579.6
653.786	590.2
654.204	592
654.622	572.6
655.019	578
655.438	590.6
655.857	582.4
656.275	583.8
656.673	576.6
657.091	583
657.51	574.8
657.908	595
658.327	603.2
658.746	573.6
659.144	582.4
659.563	592.4
659.982	590.2
660.38	574.6
660.8	582.2
661.219	590
661.617	588.2
662.037	584.4
662.457	595.8
662.855	580.4
663.275	609.8
663.695	584.4
664.094	581.8
664.514	586.4
664.934	588.2
665.333	585.8
665.753	574.8
666.152	571.8
666.572	584
666.993	594.4
667.392	575.8
667.812	582.2
668.212	577.6
668.632	582.4
669.053	577.4
669.453	585.6
669.874	593
670.273	581.6
670.694	576.8
671.116	596.4
671.515	588.6
671.937	579.4
672.337	575.8
672.758	576.8
673.158	591.2
673.58	573.4
673.98	589.4
674.402	588.4
674.824	585
675.224	579
675.646	575.4
676.047	582.6
676.469	586
676.869	593
677.292	583.8
677.693	582.4
678.115	578.4
678.516	584.4
678.939	583.2
679.34	574.8
679.762	586.4
680.164	581.2
680.586	578.6
680.988	585.4
681.411	605.6
681.812	582.2
682.236	564.2
682.637	574.8
683.061	575.4
683.462	581.8
683.864	583.2
684.288	586
684.69	575.8
685.114	587.8
685.516	592.8
685.94	565.4
686.342	579.8
686.766	576
687.168	581.4
687.571	599
687.995	584.4
688.398	573.6
688.822	584.2
689.225	589.2
689.628	602.2
690.052	573.4
690.456	585.8
690.88	586.2
691.284	564.6
691.687	585.2
692.112	573.4
692.515	577
692.919	578.6
693.344	578.6
693.747	578.6
694.173	575.6
694.577	595.4
694.98	586.2
695.406	585.2
695.81	578.6
696.214	587.8
696.64	585
697.044	584.6
697.448	586.6
697.874	582.8
698.279	582.4
698.684	572.4
699.11	567.8
699.514	579.4
699.919	577.8
700.324	571
700.75	589
701.156	580.4
701.561	594.4
701.987	591.2
702.393	586
702.798	590.2
703.203	581
703.63	579
704.036	580.8
704.442	583
704.847	573.2
705.274	577.8
705.68	582.2
706.086	588.4
706.492	584
706.92	573.6
707.326	582.4
707.732	576.4
708.139	572.8
708.545	578.6
708.973	579
709.38	575.8
709.786	571.8
710.193	589
710.6	583.6
711.028	565.2
711.435	576.2
711.842	580.6
712.249	568.6
712.656	570.4
713.064	584
713.492	574.4
713.9	573.6
714.307	583.6
714.715	572.8
715.123	576.2
715.53	578.6
715.938	588.6
716.367	574
716.775	576.8
717.184	572.8
717.592	579
718	584.8
718.408	610
718.816	618.6
719.225	583.8
719.633	585
720.042	575
720.472	584.2
720.881	599
721.29	589.8
721.699	581.6
722.108	590.6
722.517	577
722.926	577.4
723.335	587.8
723.744	579.8
724.154	583.6
724.563	583.8
724.973	587.6
725.382	583.2
725.792	577.6
726.202	570.4
726.612	601.6
727.022	577.6
727.432	578.4
779.813	571.8
780.223	622
780.634	577.6
781.044	575
781.454	577.6
781.865	589
782.276	566.2
782.686	588.4
783.097	578.2
783.508	570.6
783.919	575
784.33	592
784.741	593
785.152	577
785.563	563
785.974	571.8
786.386	584.6
786.776	572.6
787.188	577.8
787.599	567.2
788.011	583.8
788.423	584.6
788.835	574.6
789.247	573.4
789.659	568.2
790.071	566
790.483	604.8
790.874	578.6
791.286	584.8
791.699	576
792.111	578.4
792.524	580.4
792.937	571.2
793.349	568.4
793.741	567
794.154	578.4
794.567	599.4
794.98	571.8
795.393	569.4
795.785	592
796.198	575.6
796.612	584.4
797.026	573.6
797.439	567
797.831	575.2
798.245	564.8
798.659	581.2
799.073	572.4
799.487	577.6
799.88	578
800.294	570.4
800.708	579.2
801.123	571.2
801.516	596
801.93	565.2
802.345	567.6
802.76	575.2
803.153	590.4
803.568	592.4
803.983	589.2
804.377	580
804.792	565.8
805.207	566.2
805.601	573.8
806.016	608.8
806.432	575.4
806.826	607.4
807.242	588
807.658	577.8
808.052	572.6
808.468	577
808.884	567.4
809.279	583.8
809.695	589.4
810.111	609
810.506	580.4
810.922	598.8
811.339	572
811.734	583.6
812.151	575.4
812.546	570.8
812.963	569.2
813.38	580.2
813.776	581
814.193	594.4
814.589	570.8
815.006	571.6
815.402	569.2
815.82	576.8
816.237	585
816.633	580
817.051	572
817.448	577.4
817.866	576.2
818.262	599.6
818.68	570.2
819.077	568.8
819.495	574.8
819.892	618.2
820.311	563.2
820.708	573.2
821.127	566.6
821.524	586
821.943	577.8
822.34	591.4
822.759	576
823.157	577
823.576	599.4
823.974	585
824.393	625.6
824.791	571.4
825.189	571.4
825.609	577
826.007	578
826.427	565.4
826.826	579.2
827.246	575
827.644	562.4
828.043	592
828.463	571.2
828.862	581
829.261	583.6
829.682	559.6
830.081	582.6
830.502	566.8
830.901	579.4
831.301	585.6
831.722	569.6
832.121	577.4
832.521	566
832.943	578.6
833.342	576.8
833.742	574.2
834.164	568
834.564	574.4
834.965	579.4
835.386	575
835.787	576.4
836.188	581.2
836.588	577.2
837.01	576.4
837.411	575.2
837.812	589.8
838.213	580.4
838.636	571.8
839.037	639.6
839.438	581.8
839.84	579.8
840.263	585.4
840.664	580.8
841.066	574.4
841.468	572
841.891	567
842.293	586.2
842.695	574.2
843.098	587.4
843.5	573
843.902	578.2
844.326	576.4
844.729	571.8
845.131	579.8
845.534	577.6
845.937	590.6
846.34	590.6
846.764	575.4
847.167	572.4
847.571	569.8
847.974	573.8
848.377	567.2
848.781	619.4
849.184	580.6
849.588	569.4
849.992	577.2
850.396	572.6
850.821	591.8
851.225	577.2
851.63	574.6
852.034	586.4
852.438	576.8
852.843	607
853.247	573.6
853.652	560.2
854.057	586.2
854.462	579
854.867	575.8
855.272	602.8
855.677	575.8
856.082	566
856.487	559.4
856.893	580.8
857.298	577.8
857.704	566.6
858.11	572.8
858.516	588.4
858.922	577.2
859.328	581.4
859.734	584.8
860.14	575.2
860.525	575.4
860.931	569.8
861.338	571.2
861.745	580.2
862.151	584.2
862.558	571.4
862.965	567.2
863.372	562.2
863.779	570.6
864.186	597
864.572	568.2
864.98	591.8
865.387	598
865.795	562.4
866.203	581.4
866.61	560.4
867.018	580
867.405	579.4
867.813	574.2
868.221	572.8
868.63	567
869.038	581.2
869.425	612.8
869.834	583.2
870.243	572.2
870.652	565.6
871.039	568.6
871.448	576
871.857	576.8
872.266	575.8
872.654	580.2
873.064	578.6
873.473	580.2
873.883	573.8
874.271	576.2
874.681	586.4
875.091	569
875.48	578
875.89	590.6
876.3	577.2
876.689	564.6
877.1	568.8
877.51	569
877.9	587.4
878.31	572
878.721	599
879.111	581
879.522	570
879.933	573.8
880.323	563
880.734	563.2
881.125	572
881.536	565.2
881.948	568
882.338	571.4
882.75	578.6
883.141	562.6
883.553	576
883.944	594.8
884.356	580.6
884.769	575.4
885.16	565.2
885.573	582
885.964	565
886.377	572.8
886.768	569.8
887.181	580.4
887.573	565.4
887.987	583.4
888.378	584
888.792	573.2
889.184	613.4
889.598	559.8
889.99	577.4
890.383	574
890.797	571.6
891.19	585.6
891.604	570.6
891.997	570.6
892.411	572
892.805	569.4
893.198	562.2
893.613	555.8
894.006	570
894.421	566.6
894.815	562.8
895.209	569.8
895.624	604
896.018	575.4
896.412	565.2
896.828	578.4
897.222	577.6
897.617	563
898.033	584.4
898.427	579.2
898.822	576.2
899.239	573.2
899.634	561.2
900.029	583.4
900.424	567.2
900.841	561.2
901.236	569
901.632	573.8
902.027	625.4
902.445	590.6
902.841	571
903.237	572.8
903.633	591.2
904.05	580.4
904.447	578.4
904.843	581.8
905.24	573.8
905.636	563.2
906.033	576.2
906.451	584.4
906.848	568.2
907.246	571.2
907.643	574.4
908.04	574.6
908.438	588.4
908.835	572.6
909.254	569.6
909.652	579.8
910.05	575.8
910.448	567.4
910.846	578.8
911.244	561.2
911.643	573.8
912.041	569.2
912.44	582.8
912.839	568.4
913.237	568.4
913.636	564.2
914.035	577.6
914.434	576.2
914.834	582.2
915.233	591.2
915.633	571.6
916.032	574
916.432	575.4
916.832	580.4
917.232	574
917.632	566.8
918.032	581.6
918.432	569.8
918.833	569.6
919.233	572.4
919.634	567.6
920.035	579.8
920.436	577.8
920.837	578.8
921.238	568.6
921.639	570.2
922.019	575.8
922.42	576.8
922.822	578.4
923.224	574.6
923.625	569.2
924.027	574.4
924.429	592
924.81	574.4
925.212	578.4
925.615	571.8
926.017	571.2
926.42	586.6
926.801	572.2
927.204	573
927.607	580.8
928.01	587.8
928.413	578.2
928.795	570
929.199	570.2
929.602	565.8
930.006	565.4
930.388	566
930.792	579.2
931.196	570.4
931.579	605.8
931.983	559.4
932.388	610.6
932.771	564.8
933.176	555.2
933.58	570.6
933.964	574
934.369	569.4
934.774	567.6
935.158	574.8
935.563	576.6
935.947	576.6
936.353	572.6
936.759	571.6
937.143	574.6
937.549	571.2
937.934	578.8
938.34	592.4
938.746	559.2
939.131	574.4
939.538	570
939.923	578.6
940.33	565
940.716	573.6
941.123	586.2
941.508	581.2
941.916	586.6
942.302	570.2
942.709	559.6
943.096	561.4
943.503	574.4
943.89	580
944.298	566.8
944.685	592.4
945.072	567
945.48	581.4
945.867	564.6
946.276	564.2
946.663	595.4
947.051	580.8
947.46	579.2
947.848	565.8
948.257	566.2
948.645	572.6
949.033	565.2
949.443	565.6
949.831	608.6
950.22	560.8
950.63	573.2
951.018	592.6
951.407	567.8
951.796	566.6
952.207	582.8
952.596	582.6
952.985	564
953.375	608.4
953.786	575.2
954.176	567
954.566	575.2
954.956	560
955.367	564.4
955.758	587.6
956.148	555.6
956.539	573.2
956.929	559.4
957.341	567
957.732	568.2
958.123	570.2
958.515	565.4
958.906	574.6
959.297	572
959.689	566.6
960.102	572.4
960.494	578.6
960.886	573.4
961.278	570.6
961.67	586.6
962.062	595.6
962.455	575.8
962.847	566.4
963.24	570.4
963.633	568.6
964.026	562.8
964.419	576.2
964.812	582.4
965.206	569.4
965.599	582.2
965.993	567.6
966.386	566.4
966.78	580
967.174	577.8
967.569	566
967.963	570.2
968.357	559.8
968.752	573
969.146	575
969.541	564.4
969.936	562.4
970.331	575.2
970.705	575.4
971.1	569.8
971.496	573.6
971.892	565.8
972.287	572.2
972.683	574.6
973.079	567.6
973.454	577.4
973.85	572.2
974.247	570.8
974.643	586.6
975.04	574
975.415	561
975.812	564.8
976.209	577.4
976.607	560.4
976.982	570
977.38	587.8
977.778	569.6
978.175	577.2
978.552	572.6
978.95	568.4
979.348	573.2
979.725	614.6
980.123	574.8
980.522	572.2
980.899	563.4
981.298	558.4
981.697	567
982.075	566.8
982.474	568.2
982.852	573
983.251	565.6
983.651	559.2
984.029	573.2
984.429	565.8
984.808	560.4
985.208	565.8
985.609	555.4
985.987	551
986.388	568.8
986.768	562.6
987.168	567.6
987.548	561.4
987.949	565
988.329	569.2
988.731	549.6
989.111	562.2
989.491	566.6
989.893	562
990.273	575.6
990.676	567.2
991.057	565.2
991.459	568
991.84	559.8
992.221	556.6
992.624	591.6
993.006	567.6
993.388	570
993.791	572.2
994.173	571.8
994.576	590.4
994.959	566.4
995.341	566.8
995.724	573
996.128	565.2
996.511	574.4
996.894	563.8
997.298	574
997.681	574.2
998.065	570.6
998.448	568
998.854	579.4
999.237	563.8
999.621	573.4
1000.01	585.6
1000.39	571.4
1000.8	567
1001.18	580.2
1001.56	570.8
1001.95	575.8
1002.33	574
1002.72	569.2
1003.13	568.4
1003.51	574.8
1003.9	569.4
1004.28	583
1004.67	570.4
1005.06	574.4
1005.44	601.4
1005.83	562.8
1006.21	567.2
1006.6	566
1006.99	581
1007.37	579.6
1007.76	574.2
1060.12	562
1060.51	558.6
1060.89	578.2
1061.28	574.8
1061.67	579.4
1062.06	579
1062.45	569.6
1062.83	564.4
1063.22	581.2
1063.61	609
1064	578.6
1064.39	574.4
1064.78	568.6
1065.14	584.6
1065.53	575.6
1065.92	566
1066.31	568.2
1066.7	580.2
1067.09	574.6
1067.46	568.8
1067.85	566.2
1068.24	568
1068.63	574.8
1069.02	565.4
1069.39	571.8
1069.78	564.8
1070.17	570
1070.57	565
1070.93	581.2
1071.33	572
1071.72	566.6
1072.11	568
1072.48	556.8
1072.87	567.8
1073.26	577.6
1073.64	568.2
1074.03	561.6
1074.4	565.8
1074.79	567.2
1075.19	571.2
1075.56	570.6
1075.95	568.4
1076.34	571
1076.72	567.4
1077.11	577.2
1077.48	577.4
1077.88	563.2
1078.25	564.4
1078.64	576.8
1079.02	571.2
1079.41	574.6
1079.78	564.4
1080.18	567.4
1080.55	623.6
1080.95	567.8
1081.32	559.8
1081.72	575
1082.09	571.6
1082.49	566
1082.86	566.8
1083.24	559.4
1083.63	565.8
1084.01	562.6
1084.38	578.2
1084.78	566
1085.16	578
1085.55	577.4
1085.93	587.2
1086.31	556
1086.7	595.4
1087.08	566.8
1087.46	568.2
1087.83	561.8
1088.23	582.4
1088.61	565.8
1088.99	573.4
1089.36	567
1089.76	573.6
1090.14	570
1090.52	572.2
1090.9	566.6
1091.27	578.8
1091.67	591.6
1092.05	572.2
1092.43	562.2
1092.81	571
1093.19	576.6
1093.57	557.6
1093.95	567.8
1094.35	584
1094.73	576.8
1095.11	559.6
1095.49	568
1095.87	561
1096.25	583
1096.63	577.2
1097.01	564
1097.39	570.6
1097.77	564.8
1098.15	570.6
1098.53	562.4
1098.91	569
1099.29	563.6
1099.68	582.2
1100.06	566
1100.44	567.6
1100.82	566.6
1101.18	565.8
1101.56	568.2
1101.95	563.2
1102.33	565.6
1102.71	563.8
1103.1	561.6
1103.48	561
1103.86	563.6
1104.22	572.6
1104.61	563.6
1104.99	567.6
1105.38	556.8
1105.76	566.8
1106.12	568.2
1106.51	594.6
1106.89	576.6
1107.26	567.2
1107.64	576.6
1108.03	557.4
1108.41	565.4
1108.78	569.2
1109.16	562.8
1109.55	575.4
1109.91	555.2
1110.3	558.8
1110.69	572.8
1111.05	565
1111.44	557.6
1111.8	572.6
1112.19	562.8
1112.58	563.2
1112.94	561.4
1113.33	560.2
1113.7	560.6
1114.09	564.4
1114.45	559.6
1114.84	566.2
1115.21	563.8
1115.6	559.6
1115.96	568
1116.35	576.2
1116.72	554.4
1117.11	571.2
1117.48	554.8
1117.85	562
1118.24	575.2
1118.6	571.8
1118.99	563.6
1119.36	569
1119.73	564
1120.12	567.4
1120.49	554.8
1120.86	566.4
1121.25	566.8
1121.62	558
1121.99	557.8
1122.38	577.4
1122.76	564.4
1123.13	560
1123.5	571.8
1123.89	581.6
1124.26	561
1124.63	563.4
1125	568.6
1125.4	555.2
1125.77	561.2
1126.14	549
1126.51	566.6
1126.88	572.6
1127.26	560.8
1127.63	552.6
1128.02	566
1128.4	560.2
1128.77	558.4
1129.14	566.6
1129.52	565
1129.89	563.4
1130.26	554.8
1130.64	544.4
1131.01	561.6
