#lambda/nm	C1
208.295	554
208.67	491.4
209.045	458.6
209.419	451.4
209.794	592.4
210.169	582
210.544	687.2
210.919	596
211.295	584.8
211.67	594
212.045	598.4
212.421	594.6
212.796	621
213.172	588.8
213.547	589.2
213.923	591.4
214.299	591.6
214.675	603.6
215.051	593.4
215.427	600.2
215.803	609.6
216.179	597.2
216.555	588.8
216.932	601.4
217.308	595
217.684	589.6
218.061	601.2
218.438	599.6
218.814	587.8
219.191	596.4
219.568	588.4
219.945	591.8
220.322	602.2
220.699	599.4
221.076	603.6
221.453	600.8
221.83	588
222.208	589.6
222.585	594.2
222.962	595.8
223.34	608.8
223.717	589
224.095	588.4
224.473	599.2
224.851	587.6
225.229	587.8
225.607	601.8
225.985	583.2
226.363	599
226.741	589.4
227.119	591.2
227.497	606.2
227.876	583.4
228.254	594.6
228.633	602.4
229.011	596.8
229.39	597.4
229.769	601.6
230.148	601.8
230.527	604.4
230.905	596.8
231.284	596.2
231.664	590.4
232.043	612.2
232.422	607.6
232.801	589.4
233.181	599.4
233.56	584.6
233.94	595.8
234.319	575.8
234.699	592.2
235.079	629.2
235.458	623.8
235.838	603.2
236.218	581.8
236.598	586.2
236.978	582.4
237.358	584.4
237.738	584
238.119	598.8
238.499	579.8
238.88	591
239.26	614.2
239.641	579.6
240.021	587.4
240.402	588.6
240.783	591
241.163	590.6
241.544	591.4
241.925	593.6
242.306	612
242.687	603.6
243.069	590.6
243.45	592.6
243.831	583
244.212	583
244.594	616.4
244.975	604
245.357	596
245.739	581.8
246.12	589.2
246.502	597.6
246.884	585.6
247.266	592.4
247.648	589.6
248.03	609.6
248.412	588.2
248.794	600.4
249.176	589.4
249.559	597.8
249.941	577.6
250.323	579.4
250.706	584.6
251.089	590.4
251.471	596.8
251.854	592.8
252.237	586
252.62	594.8
253.002	592
253.385	594.4
253.769	607.8
254.152	593.2
254.535	604.8
254.918	587
255.301	592.4
255.685	585.2
256.068	586
256.452	619
256.835	597.6
257.219	596
257.603	594.8
257.986	582.2
258.37	592.8
258.754	584.6
259.138	595.8
259.522	595.2
259.906	585
260.29	592.2
260.675	587
261.059	582.2
261.443	586.4
261.828	592.8
262.212	596.6
262.597	581.6
262.981	584.8
263.366	595.2
263.751	590.2
264.136	587.2
264.521	582.4
264.906	586.4
265.291	595.8
265.676	594.8
266.061	600.6
266.446	603.6
266.831	597.2
267.217	611.2
267.602	599.6
267.987	594.6
268.373	593.6
268.759	597.6
269.144	605
269.53	588.6
269.916	587.4
270.302	583
270.688	596.6
271.074	592.8
271.46	607.2
271.846	623.4
272.232	596.8
272.618	591.2
273.004	594.6
273.391	613.8
273.777	601.6
274.164	587.6
274.55	598.8
274.937	594.8
275.324	586.6
275.71	593
276.097	593.6
276.484	580.4
276.871	594.2
277.258	594
277.645	578.2
278.032	586.8
278.419	584
278.807	592.2
279.194	589.4
279.581	586.2
279.969	598
280.356	589.8
280.744	600.8
281.131	608
281.519	598.8
281.907	594.4
282.295	596.2
282.682	603
283.07	597.6
283.458	602.6
283.846	597.8
284.235	603
284.623	604.4
285.011	579.4
285.399	596.4
285.788	593.8
286.176	581.8
286.565	598
286.953	580
287.342	588.4
287.731	583
288.119	589.4
288.508	590.6
288.897	585.4
289.286	578.2
289.675	590.2
290.064	600.6
290.453	581.4
290.821	590.4
291.21	605.6
291.599	590.6
291.989	595.2
292.378	591.6
292.768	606.6
293.157	598.4
293.547	597
293.936	589.2
294.326	582.8
294.716	591.4
295.106	588.2
295.496	592.4
295.886	597.2
296.276	592.4
296.666	590.2
297.056	589.4
297.446	578.8
297.836	604.2
298.227	589.2
298.617	590.2
299.008	603
299.398	592.6
299.789	585.6
300.179	599.8
300.57	600.4
300.961	591.8
301.352	590.8
301.742	597.4
302.133	595.8
302.524	595.4
302.915	594.2
303.307	582.8
303.698	598
304.089	601.2
304.48	595.6
304.872	602.8
305.263	597
305.655	587.8
306.046	601.8
306.438	593
306.829	583
307.221	599.4
307.613	605.4
308.005	596.2
308.397	601.4
308.789	604.4
309.181	603.6
309.573	601.4
309.965	607
310.357	590
310.749	604.2
311.142	592
311.534	582.8
311.926	602.6
312.319	589.4
312.711	580
313.104	606.8
313.497	594
313.889	619.8
314.282	608.2
314.675	608.2
315.068	598.4
315.461	611
315.854	618.8
316.247	602.4
316.64	595.4
317.033	587.2
317.405	600.4
317.798	596.6
318.192	600.8
318.585	583.8
318.979	603
319.372	592.6
319.766	591.6
320.16	604.6
320.553	604
320.947	604.8
321.341	588.6
321.735	585.2
322.129	584.2
322.523	616
322.917	581.2
323.311	602
323.705	592.8
324.099	598
324.494	606.6
324.888	598.2
325.282	593.8
325.677	603.2
326.071	596
326.466	604.2
326.861	595.2
327.255	599.8
327.65	609.6
328.045	605.2
328.44	599.2
328.835	598
329.23	588.8
329.625	616.2
330.02	598.8
330.415	612.4
330.81	594.2
331.206	593.8
331.601	593.2
331.996	598.8
332.37	603.6
332.766	588.6
333.161	609
333.557	583.8
333.953	594.4
334.348	902
334.744	594.4
335.14	592.2
335.536	588.4
335.932	601.2
336.328	586
336.724	595.2
337.12	592.4
337.516	598.2
337.913	595.2
338.309	597
338.705	593.2
339.102	596
339.498	593.2
339.895	600.8
340.291	589.8
340.688	596
341.085	585.2
341.481	594.6
341.878	594.8
342.275	612
342.672	588.8
343.069	594.6
343.466	577.8
343.842	596.8
344.239	586
344.636	590.2
345.033	582.6
345.431	582.6
345.828	590
346.225	579.8
346.623	618
347.02	588
347.418	589.2
347.816	601.6
348.213	582.2
348.611	597.4
349.009	589
349.407	597.8
349.805	581.6
350.203	580.6
350.601	603.8
350.999	577.4
351.397	636.6
351.795	589.2
352.193	597.6
352.57	595.2
352.969	603.4
353.367	582.6
353.766	577.6
354.164	589
354.563	596
354.961	593.6
355.36	586
355.759	578.4
356.158	576.6
356.557	583
356.956	588.2
357.355	582.2
357.754	587.6
358.153	589.2
358.552	607.6
358.951	584.4
359.35	600.8
359.75	582
360.149	585.2
360.527	577.2
360.926	585
361.326	584.4
361.726	577.6
362.125	581.4
362.525	591.8
362.925	587.4
363.325	587.6
363.724	590
364.124	585
364.524	581.2
364.924	578
365.324	596.6
365.725	572.6
366.125	585.8
366.525	586.2
366.904	587.8
367.304	579.8
367.705	597.2
368.105	599.6
368.506	586.4
368.906	585.8
369.307	589
369.708	596.8
370.108	576.8
370.509	591
370.91	580.8
371.311	595
371.712	583
372.113	581.6
372.514	573.2
372.894	574.6
373.295	582
373.696	586.4
374.097	588
374.499	602.4
374.9	594.6
375.301	579.2
375.703	586.2
376.105	579.8
376.506	584.4
376.908	579.4
377.309	591.2
377.711	582.6
378.113	583.8
378.493	580
378.895	582
379.297	588.4
379.699	571.6
380.102	594.4
380.504	584.4
380.906	580.4
381.308	614.8
381.71	591.6
382.113	596.4
382.515	586.8
382.918	591
383.299	580.2
383.701	590.4
384.104	587.4
384.507	566.6
384.909	583.8
385.312	574.2
385.715	569.2
386.118	575.2
386.521	570.4
386.924	587.6
387.327	566.6
387.709	571
388.112	570
388.515	576.2
388.918	578.2
389.322	588.6
389.725	581.4
390.129	594.6
390.532	578.2
390.936	564.6
391.339	573.8
391.743	588.2
392.125	580.6
392.529	591.6
392.933	597.8
393.337	582.4
393.74	582.8
394.144	590.8
394.548	575
394.953	574.8
395.357	588.2
395.761	579
396.144	593.2
396.548	577.4
396.952	594.2
397.357	584.6
397.761	582.2
398.166	579.8
398.57	583.8
398.975	576.4
399.379	590.6
399.763	628.8
400.168	583.6
400.572	575.2
400.977	576.8
401.382	602.2
401.787	592.4
402.192	606
402.597	592.2
403.002	572.4
403.386	587.6
403.791	604.2
404.197	578
404.602	584.2
405.007	585.2
405.413	581.8
405.818	584.2
406.224	570.6
406.608	577.6
407.014	576.4
407.42	593.4
407.825	581
408.231	588.6
408.637	581
409.043	599.4
409.449	576.8
409.834	576.6
410.24	587.4
410.646	597.2
411.052	584
411.458	584.8
411.865	587
412.271	590.8
412.677	590.6
413.062	579.2
413.469	577
413.875	608.2
414.282	595
414.689	584.8
415.095	599.2
415.502	576.4
415.888	589.2
416.294	580.6
416.701	614.2
417.108	583.6
417.515	587.4
417.923	590.2
418.33	602.2
418.715	594.4
419.123	588
419.53	582.6
419.937	589
420.345	598.6
420.752	587.2
421.16	597.2
421.546	590.6
421.953	594.2
422.361	585
422.769	589.4
423.177	586.8
423.585	611.2
423.992	600
424.379	600.2
424.787	588
425.195	601.2
425.603	586.8
426.011	596.4
426.419	596.6
426.806	587.2
427.214	596.2
427.623	597.6
428.031	599.4
428.44	587.2
428.848	601.2
429.235	602.4
429.644	596.8
430.053	581.4
430.461	600.4
430.87	610.8
431.279	595.8
431.666	585
432.075	582
432.484	596.8
432.893	593.4
433.302	599.8
433.711	625.4
434.099	594.4
434.508	586
434.918	573.2
435.327	593.6
435.737	583.8
436.125	593.2
436.534	585
436.944	589.4
437.353	587.2
437.763	607.8
438.173	587.2
438.561	600.6
438.971	569.4
439.381	592.4
439.791	588
440.201	563.8
440.589	580.2
440.999	585.4
441.409	580
441.819	566.2
442.23	584.8
442.619	587
443.029	582.8
443.439	580.6
443.85	588.8
444.26	592.8
444.649	593
445.06	586.6
445.471	577.6
445.881	583
446.292	593.2
446.682	599.2
447.092	575.6
447.503	616
447.914	585.4
448.325	575.8
448.715	590.2
449.126	578
449.537	584.2
449.948	585.6
450.338	585.4
450.75	595
451.161	579.2
451.572	594.4
451.984	583.6
452.374	570.4
452.786	575.4
453.197	584.2
453.609	585.6
453.999	572
454.411	570.4
454.823	585
455.235	590.2
455.647	572
456.037	587
456.449	573.4
456.862	582.4
457.274	573.8
457.665	577.4
458.077	585.6
458.489	610.8
458.902	578
459.293	586.4
459.705	586.2
460.118	576.2
460.53	584.2
460.921	584.4
461.334	583.4
461.747	583.8
462.16	591.4
462.551	596.2
462.964	583.4
463.377	575.6
463.79	575.2
464.182	596
464.595	577.6
465.008	591
465.421	593
465.813	579
466.226	578.8
466.64	580.2
467.053	618.6
467.445	579.6
467.859	595
468.272	578.6
468.686	591.2
469.078	580
469.492	569.4
469.906	579
470.298	584.2
470.712	581.2
471.126	622.8
471.54	573.6
471.933	566.8
472.347	569.6
472.761	579.4
473.175	570.8
473.568	582.8
473.982	571
474.397	583.2
474.79	574.6
475.204	578
475.619	575.2
476.033	589
476.426	573
476.841	571
477.256	602.2
477.649	569.8
478.064	574.4
478.479	575.4
478.872	566.4
479.287	567
479.702	572.2
480.118	579.8
480.511	572.8
480.927	566.2
481.342	575.6
481.736	579
482.151	572
482.566	583.4
482.96	582.8
483.376	587.8
483.792	572.8
484.186	573.8
484.602	570.4
485.017	575.6
485.412	575.2
485.827	575
486.243	576.6
486.638	593.6
487.054	574.4
487.47	582
487.865	572.2
488.281	569.2
488.697	559.8
489.092	571.8
489.508	568.2
489.925	588
490.32	571.2
490.736	579.4
491.153	575.4
491.548	575.8
491.964	587.8
492.381	562.6
492.776	582.8
493.193	581.8
493.61	583.8
494.006	577.8
494.422	582.2
494.84	568.2
495.235	576.2
495.652	578.4
496.069	585.8
496.465	566.6
496.883	573.8
497.3	598.6
497.696	575.4
498.113	585
498.509	564.6
498.927	575.2
499.344	567.8
499.741	572.4
500.158	584.2
500.576	588.6
500.973	579.8
501.39	568
501.787	568.4
502.205	579
502.623	576.6
503.02	561.8
503.438	572
503.856	575.8
504.253	572.2
504.671	570
505.068	566.4
505.486	569
505.905	588.4
506.302	575.2
506.72	590.4
507.118	576
507.536	567.2
507.955	571.2
508.352	574.4
508.771	580.8
509.169	578
509.587	567.2
510.006	574.8
510.404	562.8
510.823	576.4
511.221	577
511.64	572
512.038	590
512.457	569
512.877	564.2
513.275	567.4
513.694	578.8
514.092	576.8
514.512	575
514.91	581.8
515.33	573
515.749	577.4
516.148	582
516.568	579.4
516.966	574.2
517.386	577.8
517.785	574.2
518.205	565.8
518.603	578.4
519.024	572
519.444	577.6
519.843	586.4
520.263	581
520.662	582.2
521.082	578.2
521.481	578
521.902	582.2
522.301	578.6
522.722	582.6
523.121	576.4
523.542	572.8
523.963	572.6
524.362	579.4
524.783	583.2
525.183	565.6
525.604	574.4
526.003	569.4
526.425	569.6
526.824	578.8
527.246	588.4
527.646	582.6
528.067	579.4
528.467	575.2
528.888	568.4
529.289	569
529.71	581
530.11	573.2
530.532	561.8
530.932	563
531.354	572
531.755	616.6
532.176	582.6
532.577	573.4
532.999	576.8
533.4	569.6
533.822	582.2
534.223	582.2
534.645	571.6
535.046	576
535.468	579.2
535.869	591.6
536.292	574.8
536.693	599
537.115	584.6
537.516	573.8
537.939	574.8
538.34	585.8
538.742	585.6
539.165	573.4
539.566	569.6
539.989	565.2
540.391	566.4
540.814	575.2
541.216	576
541.639	572.4
542.041	582.2
542.464	564
542.866	559.4
543.268	558.2
543.691	575.6
544.093	574.6
544.517	586.4
544.919	568.8
545.343	591.2
545.745	561.6
546.147	572.4
546.571	569.6
546.974	564.8
547.398	569.4
547.8	577.4
548.224	569.2
548.627	561
549.03	575.4
549.454	562
549.857	569.6
550.281	567
550.684	571.4
551.087	578.8
551.512	583
551.915	582.4
552.34	570.6
552.743	569.4
553.146	565.2
553.571	566.2
553.975	584.2
554.399	562.6
554.803	606.2
555.207	567.2
555.632	571
556.036	579
556.461	571
556.865	577.6
557.268	567.2
557.694	569
558.098	576
558.502	581
558.927	563.6
559.332	573.2
559.736	569.6
560.162	571.2
560.566	575.6
560.992	571.2
561.396	571.8
561.801	575.2
562.227	573.4
562.631	570.4
563.036	579
563.462	579.4
563.867	570.2
564.272	563.8
564.698	577
565.103	570.2
565.508	585
565.935	565.4
566.34	564
566.745	580.6
567.172	565
567.577	589.8
567.982	579.6
568.409	575.4
568.815	571.2
569.22	572.6
569.626	581.4
570.053	567
570.459	577.8
570.865	574.6
571.292	576.8
571.698	568.6
572.104	565.6
572.531	567.8
572.937	583.4
573.343	571.2
573.75	568
574.177	568.8
574.583	575.2
574.99	573.2
575.396	582
575.824	573.8
576.231	583.2
576.637	567.6
577.065	592.6
577.472	568.6
577.879	568.2
578.286	585.4
578.714	561.6
579.121	570.2
579.528	565.6
579.935	571.8
580.364	563.6
580.771	554.6
581.178	564.4
581.585	565.8
582.014	570.2
582.421	560
582.829	566.4
583.236	579
583.644	563.4
584.073	565.4
584.481	569
584.889	570
585.296	575
585.726	575.6
586.134	567.2
586.542	565.8
586.95	580.6
587.358	560.8
587.787	571
588.196	580
588.604	574.2
589.012	572.6
589.421	562.4
589.851	566.6
590.259	574.2
590.668	562.8
591.076	601.8
591.485	569.8
591.894	570.8
592.324	577.4
592.733	585.2
593.142	568.8
593.551	562.8
593.96	571.4
594.369	556.2
594.8	558.6
595.209	570.6
595.618	560.4
596.028	561.2
596.437	561.8
596.847	569.6
597.256	566
597.687	572.2
598.097	573.2
598.507	561.8
598.917	566.6
599.327	572
599.736	573.2
600.146	581.8
600.556	567.8
600.988	582.4
601.398	568.6
601.808	575.2
602.219	557.8
602.629	573
603.039	570.6
603.45	582.4
603.86	578.6
604.271	586.4
604.703	573
605.114	564.8
605.525	580.4
605.935	573.6
606.346	590.8
606.757	572
607.168	570.8
607.579	565.2
607.99	576.2
608.402	569.8
608.813	568.6
609.224	568
609.636	568
610.047	567.6
610.48	570.4
610.892	579
611.303	585
611.715	570
612.127	568.4
612.539	562.8
612.95	570.4
613.362	562.6
613.774	570
614.186	561.2
614.599	565.8
615.011	572.4
615.423	564.6
615.835	570.6
616.248	562.2
616.66	576.6
617.073	564
617.485	573.6
617.898	580.4
618.311	571.4
618.723	570.8
619.136	591.8
619.549	589.8
619.962	598.2
620.375	569.4
620.788	569
621.201	561.4
621.614	576.8
622.028	571.2
622.441	573.2
622.854	589.2
623.268	565.2
623.681	573.2
624.095	575.8
624.509	581
624.922	577.8
625.336	562.6
625.728	571.6
626.142	576.6
626.556	585.6
626.97	581.6
627.384	567.4
627.799	570.6
628.213	583.8
628.627	564.2
629.041	569.2
629.456	567.8
629.87	569.6
630.285	584
630.699	583
631.093	571.4
631.507	571
631.922	572.4
632.337	587
632.752	567.6
633.167	566.4
633.582	572.6
633.997	562.8
634.412	569.2
634.806	575.6
635.221	567.2
635.637	575.2
636.052	557.6
636.468	573
636.883	583.6
637.299	558.2
637.715	565.6
638.109	568.4
638.525	554.6
638.941	576
639.357	571.8
639.773	570.8
640.189	561.2
640.584	566.4
641	564.2
641.416	555.2
641.832	573.2
642.249	568.6
642.665	571.6
643.06	579.2
643.477	579.2
643.894	564.8
644.31	571
644.727	564
645.123	567
645.54	561.6
645.957	573.2
646.374	575.8
646.77	570.2
647.187	589.6
647.604	575.2
648.021	557.4
648.439	565
648.835	566.4
649.252	564
649.67	570.6
650.088	573.8
650.484	565.2
650.902	574.4
651.32	576.4
651.738	566.8
652.134	573
652.552	583.6
652.971	564.6
653.389	572.4
653.786	576.8
654.204	584.6
654.622	561.2
655.019	567.4
655.438	569
655.857	570
656.275	576.4
656.673	564
657.091	579.2
657.51	561.6
657.908	581.4
658.327	578.4
658.746	554.8
659.144	576.2
659.563	578.8
659.982	571.6
660.38	562.4
660.8	571.8
661.219	582.8
661.617	569.6
662.037	568.6
662.457	580.6
662.855	563.8
663.275	592
663.695	569
664.094	569
664.514	573.8
664.934	564.4
665.333	579.2
665.753	553.6
666.152	558.4
666.572	562.6
666.993	580
667.392	553.8
667.812	563.4
668.212	564.8
668.632	578.4
669.053	569.4
669.453	577.6
669.874	568.4
670.273	570.2
670.694	564.6
671.116	583.4
671.515	581
671.937	568.4
672.337	569.8
672.758	571
673.158	577.4
673.58	563.6
673.98	577.4
674.402	580.2
674.824	560.6
675.224	565
675.646	555.6
676.047	562.6
676.469	564.2
676.869	567.2
677.292	571
677.693	556.6
678.115	561.4
678.516	562.8
678.939	562.8
679.34	554.4
679.762	575.2
680.164	570.4
680.586	553.4
680.988	569.2
681.411	575.6
681.812	558.4
682.236	561.8
682.637	555.4
683.061	560.2
683.462	564.4
683.864	565.6
684.288	569.2
684.69	561.2
685.114	576.4
685.516	567.4
685.94	562.6
686.342	572.6
686.766	571.2
687.168	560.6
687.571	580.8
687.995	567.4
688.398	563.8
688.822	564.4
689.225	583.2
689.628	589.4
690.052	562.8
690.456	571.2
690.88	570.8
691.284	563.8
691.687	568.4
692.112	562
692.515	545.6
692.919	558
693.344	575.2
693.747	564
694.173	565.2
694.577	570
694.98	563.6
695.406	564.8
695.81	567.2
696.214	567.2
696.64	570.8
697.044	566.4
697.448	575
697.874	562.4
698.279	567.4
698.684	562.6
699.11	551.4
699.514	559.4
699.919	558.8
700.324	557.2
700.75	567.4
701.156	562.6
701.561	576.8
701.987	575.6
702.393	578
702.798	573
703.203	568.6
703.63	570.4
704.036	557
704.442	568.6
704.847	560.2
705.274	569
705.68	565.6
706.086	571
706.492	556.4
706.92	566
707.326	574
707.732	560.2
708.139	559
708.545	559.8
708.973	568.2
709.38	562.2
709.786	560.4
710.193	586.2
710.6	563.8
711.028	561.2
711.435	561.2
711.842	565
712.249	555.6
712.656	567
713.064	572.6
713.492	561.4
713.9	565.6
714.307	560.2
714.715	554.6
715.123	561.4
715.53	568
715.938	578
716.367	569.2
716.775	565.2
717.184	559.2
717.592	565.6
718	574.2
718.408	596.4
718.816	597.6
719.225	563
719.633	565.4
720.042	555.2
720.472	565.2
720.881	583.8
721.29	571.2
721.699	559.2
722.108	571.8
722.517	567.6
722.926	559.2
723.335	572.2
723.744	568
724.154	567.4
724.563	564.2
724.973	565.6
725.382	565
725.792	565.6
726.202	558.4
726.612	579.2
727.022	567.2
727.432	563.2
779.813	567.2
780.223	598.2
780.634	563
781.044	562.4
781.454	566.4
781.865	579.2
782.276	561.8
782.686	578.6
783.097	561.4
783.508	560.2
783.919	561.4
784.33	572.8
784.741	573
785.152	556.6
785.563	550.8
785.974	559
786.386	563.8
786.776	558.8
787.188	567.4
787.599	557.4
788.011	573.8
788.423	561.4
788.835	562
789.247	557.2
789.659	560
790.071	554
790.483	602
790.874	559.4
791.286	564.6
791.699	559.6
792.111	568.8
792.524	563.2
792.937	566.8
793.349	556.8
793.741	563.4
794.154	561.8
794.567	578.6
794.98	561.2
795.393	563
795.785	576.6
796.198	557.6
796.612	560.2
797.026	559.4
797.439	548.4
797.831	563
798.245	551.8
798.659	568
799.073	558.4
799.487	565.6
799.88	563
800.294	558
800.708	569.6
801.123	558.6
801.516	575.8
801.93	551.8
802.345	547
802.76	565
803.153	575.4
803.568	575
803.983	567.6
804.377	568.2
804.792	560.8
805.207	551.4
805.601	565
806.016	592
806.432	569.8
806.826	589
807.242	579.8
807.658	573.2
808.052	556.8
808.468	558.8
808.884	559.8
809.279	553.8
809.695	575.2
810.111	578
810.506	564.4
810.922	570.6
811.339	559
811.734	557.2
812.151	560.8
812.546	552.2
812.963	556.6
813.38	565.4
813.776	560.6
814.193	579
814.589	557
815.006	557.6
815.402	560.6
815.82	562.6
816.237	565
816.633	566
817.051	566
817.448	563.4
817.866	551.6
818.262	577.6
818.68	554.2
819.077	553.6
819.495	561.2
819.892	599.8
820.311	557.4
820.708	564.4
821.127	558
821.524	577
821.943	573.2
822.34	574.2
822.759	556.2
823.157	561
823.576	577.6
823.974	564.6
824.393	576.6
824.791	556
825.189	548.6
825.609	559
826.007	555
826.427	554.4
826.826	554.6
827.246	561.6
827.644	547.2
828.043	573.2
828.463	566.6
828.862	565.6
829.261	564
829.682	547
830.081	559.8
830.502	558.8
830.901	566.8
831.301	571.6
831.722	554.8
832.121	568
832.521	562.8
832.943	558
833.342	561.4
833.742	553
834.164	552
834.564	559.2
834.965	556.6
835.386	558.2
835.787	555.4
836.188	559.8
836.588	552.6
837.01	566.4
837.411	557.2
837.812	569.2
838.213	564.8
838.636	563.6
839.037	618.2
839.438	560.6
839.84	563.2
840.263	571
840.664	559
841.066	559
841.468	557
841.891	557.4
842.293	569.2
842.695	566
843.098	574.8
843.5	554.8
843.902	559
844.326	568
844.729	563.8
845.131	569.6
845.534	561.8
845.937	564.6
846.34	576.4
846.764	556.4
847.167	558.6
847.571	548.6
847.974	563.2
848.377	562.8
848.781	597.4
849.184	569.6
849.588	553.2
849.992	555
850.396	562
850.821	575
851.225	570.6
851.63	571
852.034	565.2
852.438	567.6
852.843	626.8
853.247	552.6
853.652	553.8
854.057	574.2
854.462	566.2
854.867	567.6
855.272	585.8
855.677	564.8
856.082	557.6
856.487	555.6
856.893	567.6
857.298	553.6
857.704	560.6
858.11	564.2
858.516	568.2
858.922	561
859.328	570.6
859.734	566
860.14	566.4
860.525	559.4
860.931	555.4
861.338	566
861.745	566.2
862.151	561.8
862.558	564.6
862.965	554.4
863.372	555.4
863.779	555
864.186	576
864.572	560.2
864.98	566.8
865.387	587.8
865.795	561.4
866.203	561.2
866.61	549.8
867.018	565
867.405	565
867.813	565.4
868.221	558.2
868.63	551.6
869.038	570.4
869.425	588.8
869.834	556.8
870.243	561.4
870.652	556.6
871.039	559.6
871.448	559.6
871.857	559.2
872.266	568.6
872.654	560
873.064	555
873.473	563.2
873.883	552.6
874.271	559.2
874.681	567
875.091	552.4
875.48	572.6
875.89	576.2
876.3	563.6
876.689	547.4
877.1	558.6
877.51	564.6
877.9	584.4
878.31	559.2
878.721	587.4
879.111	569
879.522	556
879.933	554.6
880.323	558.6
880.734	554
881.125	557.6
881.536	554.2
881.948	551.4
882.338	560.2
882.75	557.6
883.141	560.6
883.553	561.2
883.944	581
884.356	562.2
884.769	560.4
885.16	562.6
885.573	554.4
885.964	557.8
886.377	557
886.768	549.6
887.181	565.2
887.573	551
887.987	566.2
888.378	572.6
888.792	564
889.184	598
889.598	557
889.99	555
890.383	556.6
890.797	553.6
891.19	562.2
891.604	557.4
891.997	556.4
892.411	547.4
892.805	553.8
893.198	548.6
893.613	546
894.006	553.4
894.421	551.6
894.815	554.4
895.209	558.8
895.624	592.2
896.018	577
896.412	557.4
896.828	553.6
897.222	558.4
897.617	557.8
898.033	568.2
898.427	570.6
898.822	559.6
899.239	552.8
899.634	548.8
900.029	565
900.424	556.2
900.841	553.2
901.236	568.2
901.632	565.6
902.027	606.8
902.445	568.2
902.841	563.2
903.237	562.2
903.633	568.4
904.05	562.4
904.447	566.6
904.843	557.2
905.24	553.2
905.636	554
906.033	563.6
906.451	568.4
906.848	551.2
907.246	552.2
907.643	557.6
908.04	559.8
908.438	561
908.835	558
909.254	559.6
909.652	575.8
910.05	564.8
910.448	553.4
910.846	554.8
911.244	551.8
911.643	557.8
912.041	558.6
912.44	570.4
912.839	550.4
913.237	552.8
913.636	554.6
914.035	561.4
914.434	548.8
914.834	568
915.233	569.6
915.633	561.6
916.032	550
916.432	553.8
916.832	573
917.232	558.2
917.632	557.8
918.032	558
918.432	548.4
918.833	551.6
919.233	559.8
919.634	543.4
920.035	555.8
920.436	548.4
920.837	562.8
921.238	552.4
921.639	552.8
922.019	552.6
922.42	550.8
922.822	555.6
923.224	550.6
923.625	554.6
924.027	555.8
924.429	570.4
924.81	559.2
925.212	564.8
925.615	560
926.017	559.2
926.42	560.4
926.801	562
927.204	557.2
927.607	554.8
928.01	565.4
928.413	554.4
928.795	550.2
929.199	554.8
929.602	550.4
930.006	555
930.388	560.2
930.792	563.6
931.196	561.4
931.579	591
931.983	559.4
932.388	596
932.771	559
933.176	548.6
933.58	561
933.964	568.8
934.369	548.6
934.774	563.2
935.158	563.4
935.563	560.8
935.947	559.4
936.353	566.2
936.759	559.4
937.143	551.6
937.549	551.6
937.934	560.6
938.34	569.8
938.746	544.2
939.131	551
939.538	550.4
939.923	561
940.33	557.4
940.716	556
941.123	553.6
941.508	558.8
941.916	575.4
942.302	564
942.709	551.4
943.096	553.4
943.503	563.4
943.89	559.2
944.298	558.2
944.685	580.2
945.072	544
945.48	569.2
945.867	548.6
946.276	543.8
946.663	574.6
947.051	576.6
947.46	567.8
947.848	562.6
948.257	557.8
948.645	567
949.033	557
949.443	556.2
949.831	593.2
950.22	551.6
950.63	562.8
951.018	584.2
951.407	558.6
951.796	556
952.207	570.4
952.596	553.2
952.985	550.6
953.375	592.4
953.786	553.8
954.176	551
954.566	566.6
954.956	556
955.367	554.4
955.758	582.2
956.148	549.8
956.539	563.4
956.929	547.6
957.341	550.8
957.732	560
958.123	563.8
958.515	550.4
958.906	558.8
959.297	555.4
959.689	560
960.102	556.6
960.494	549.8
960.886	555.8
961.278	562.8
961.67	572.8
962.062	588.2
962.455	558.6
962.847	548
963.24	554.4
963.633	557.4
964.026	549.8
964.419	560.4
964.812	568
965.206	550.8
965.599	556
965.993	562.6
966.386	562.4
966.78	563.8
967.174	563.4
967.569	549.8
967.963	552.8
968.357	551.6
968.752	552.2
969.146	555.8
969.541	545.8
969.936	556
970.331	554.8
970.705	557
971.1	555.6
971.496	558.8
971.892	553.4
972.287	549.4
972.683	561
973.079	557.2
973.454	570.2
973.85	562
974.247	560.2
974.643	570.4
975.04	556.6
975.415	556.6
975.812	557.4
976.209	558.4
976.607	545
976.982	561.4
977.38	563.2
977.778	555.6
978.175	551.8
978.552	561.2
978.95	561.2
979.348	563.8
979.725	594
980.123	550.8
980.522	558.2
980.899	556
981.298	554.4
981.697	556.4
982.075	556.2
982.474	553.6
982.852	544.4
983.251	555.2
983.651	553.4
984.029	558.6
984.429	553.2
984.808	550.6
985.208	551.6
985.609	547.4
985.987	544.6
986.388	546.8
986.768	559.6
987.168	551.6
987.548	559.6
987.949	559.8
988.329	558.8
988.731	553.6
989.111	560
989.491	559.4
989.893	559.2
990.273	567.2
990.676	549.4
991.057	551.2
991.459	551.8
991.84	555.4
992.221	544.4
992.624	570.2
993.006	561.6
993.388	556.6
993.791	566
994.173	565.4
994.576	585.8
994.959	553.6
995.341	554.2
995.724	551.2
996.128	550.2
996.511	558.2
996.894	551.4
997.298	550.2
997.681	556
998.065	551.4
998.448	548.8
998.854	567.4
999.237	546.2
999.621	562.2
1000.01	564
1000.39	554.4
1000.8	550.6
1001.18	558.6
1001.56	564.6
1001.95	560
1002.33	561
1002.72	554.4
1003.13	551.8
1003.51	557.4
1003.9	545.4
1004.28	567.6
1004.67	555.8
1005.06	557
1005.44	584.2
1005.83	541.8
1006.21	557
1006.6	547.2
1006.99	562.8
1007.37	569.2
1007.76	557.6
1060.12	554.6
1060.51	547.6
1060.89	564.8
1061.28	560.6
1061.67	563.6
1062.06	556
1062.45	550.4
1062.83	550.6
1063.22	563.6
1063.61	578.4
1064	560.2
1064.39	551
1064.78	554.2
1065.14	554
1065.53	552.8
1065.92	548.4
1066.31	550
1066.7	560.4
1067.09	567.8
1067.46	565.6
1067.85	552.8
1068.24	556.2
1068.63	563.4
1069.02	556.2
1069.39	557
1069.78	549.6
1070.17	548.8
1070.57	549.8
1070.93	559.2
1071.33	557.2
1071.72	559
1072.11	541.6
1072.48	552
1072.87	559.2
1073.26	557.2
1073.64	552.4
1074.03	548.2
1074.4	555.4
1074.79	552
1075.19	547.6
1075.56	551.6
1075.95	554.6
1076.34	546.8
1076.72	547.6
1077.11	560
1077.48	566.2
1077.88	560.2
1078.25	551.8
1078.64	556.2
1079.02	555.8
1079.41	562
1079.78	550.8
1080.18	553.6
1080.55	604
1080.95	550
1081.32	554.4
1081.72	561.2
1082.09	550.4
1082.49	555.8
1082.86	559.6
1083.24	543.2
1083.63	544.8
1084.01	554
1084.38	550.8
1084.78	536.8
1085.16	554
1085.55	562.6
1085.93	572
1086.31	550.6
1086.7	575.6
1087.08	555.6
1087.46	557.4
1087.83	551.8
1088.23	563.4
1088.61	553.6
1088.99	553.8
1089.36	548.2
1089.76	563.8
1090.14	549
1090.52	553
1090.9	544.2
1091.27	569.2
1091.67	574.2
1092.05	558.6
1092.43	554.2
1092.81	561.2
1093.19	559.2
1093.57	553
1093.95	548.6
1094.35	559.4
1094.73	562
1095.11	548.2
1095.49	546.2
1095.87	555.6
1096.25	562.6
1096.63	561
1097.01	551.2
1097.39	562
1097.77	555.4
1098.15	550.8
1098.53	544.6
1098.91	555.2
1099.29	551.8
1099.68	573.4
1100.06	558
1100.44	548.4
1100.82	558.4
1101.18	557.4
1101.56	558.8
1101.95	552.2
1102.33	556
1102.71	550
1103.1	551.2
1103.48	545
1103.86	551.6
1104.22	557.8
1104.61	552.6
1104.99	553.8
1105.38	548
1105.76	554.8
1106.12	558.4
1106.51	591.6
1106.89	555.4
1107.26	552
1107.64	563.4
1108.03	548.8
1108.41	549.4
1108.78	557.6
1109.16	550.8
1109.55	566.6
1109.91	541.2
1110.3	549.8
1110.69	566.2
1111.05	551.2
1111.44	553
1111.8	556.6
1112.19	555.6
1112.58	549.8
1112.94	558
1113.33	554.4
1113.7	549.8
1114.09	550.2
1114.45	549
1114.84	559.4
1115.21	553.6
1115.6	551.8
1115.96	555.8
1116.35	559.6
1116.72	554
1117.11	559.6
1117.48	551
1117.85	547.8
1118.24	565.4
1118.6	555.4
1118.99	543
1119.36	551.4
1119.73	545
1120.12	548.8
1120.49	545.2
1120.86	560
1121.25	546.6
1121.62	542.4
1121.99	548.6
1122.38	559.8
1122.76	546.8
1123.13	549
1123.5	556.8
1123.89	566.6
1124.26	544.2
1124.63	551.2
1125	547.2
1125.4	541.6
1125.77	548.2
1126.14	536.8
1126.51	549.4
1126.88	550.2
1127.26	544
1127.63	538.4
1128.02	548.4
1128.4	549
1128.77	554.2
1129.14	553.4
1129.52	558
1129.89	560
1130.26	546.6
1130.64	541
1131.01	545
