#lambda/nm	C1
208.295	529.6
208.67	482.2
209.045	442
209.419	441.2
209.794	614.2
210.169	593.8
210.544	713.2
210.919	614.8
211.295	592.8
211.67	609.8
212.045	611.6
212.421	607
212.796	640.6
213.172	599
213.547	605.4
213.923	601.6
214.299	601
214.675	609.4
215.051	609.6
215.427	613.2
215.803	628.6
216.179	622
216.555	607.2
216.932	608.8
217.308	610.6
217.684	602
218.061	606.6
218.438	613.2
218.814	603.4
219.191	613.2
219.568	608.4
219.945	601
220.322	621.2
220.699	615.2
221.076	617.8
221.453	612
221.83	602
222.208	608.4
222.585	602
222.962	614.6
223.34	617.4
223.717	611.8
224.095	606.4
224.473	615.4
224.851	605
225.229	596.8
225.607	612.8
225.985	608.4
226.363	612.8
226.741	615.8
227.119	608.4
227.497	620.8
227.876	598
228.254	614
228.633	611.2
229.011	618.4
229.39	618.2
229.769	609.4
230.148	613.8
230.527	623.4
230.905	611
231.284	611.8
231.664	596.8
232.043	619
232.422	608.8
232.801	597.4
233.181	615.8
233.56	603.4
233.94	614.2
234.319	599.4
234.699	610
235.079	646.4
235.458	646.6
235.838	634.6
236.218	601.8
236.598	603.6
236.978	595.6
237.358	608.4
237.738	607.8
238.119	611.8
238.499	596.8
238.88	603
239.26	621.8
239.641	598.8
240.021	604
240.402	605.4
240.783	604.2
241.163	604.4
241.544	606.6
241.925	603.6
242.306	625.8
242.687	613.6
243.069	607.6
243.45	609.4
243.831	600.6
244.212	607.2
244.594	642
244.975	620
245.357	617.8
245.739	601.8
246.12	607.8
246.502	616.4
246.884	613.2
247.266	600.2
247.648	608.2
248.03	619.6
248.412	614.2
248.794	609.4
249.176	604.6
249.559	616
249.941	605.4
250.323	601
250.706	614.4
251.089	613.4
251.471	614.8
251.854	611.8
252.237	612.2
252.62	614.4
253.002	605.6
253.385	609
253.769	627.8
254.152	610.2
254.535	621.2
254.918	597
255.301	608.8
255.685	608.4
256.068	600
256.452	629.2
256.835	616.8
257.219	621.8
257.603	623.8
257.986	602.6
258.37	601.6
258.754	601.2
259.138	611
259.522	627
259.906	610.4
260.29	616.2
260.675	610.6
261.059	610.6
261.443	601.6
261.828	616.4
262.212	607.6
262.597	594.4
262.981	601.8
263.366	614.6
263.751	620.4
264.136	601.2
264.521	601.4
264.906	598
265.291	614
265.676	605.4
266.061	621.8
266.446	626.6
266.831	607
267.217	624.8
267.602	614.4
267.987	615.6
268.373	610.4
268.759	619.2
269.144	616.8
269.53	606.2
269.916	609
270.302	600
270.688	608.2
271.074	608.6
271.46	617.8
271.846	628
272.232	608.6
272.618	596.4
273.004	599.2
273.391	621.2
273.777	627.2
274.164	609.2
274.55	623.8
274.937	609.6
275.324	604.8
275.71	618
276.097	615.4
276.484	594.8
276.871	607.2
277.258	614.6
277.645	596
278.032	607.8
278.419	603.4
278.807	610.4
279.194	597.6
279.581	607.4
279.969	601.8
280.356	601
280.744	607.2
281.131	627.8
281.519	614.4
281.907	605.2
282.295	601.6
282.682	617.2
283.07	602.8
283.458	620.4
283.846	615.8
284.235	615.2
284.623	615
285.011	592.6
285.399	618
285.788	608
286.176	601.6
286.565	623.4
286.953	605.4
287.342	602.2
287.731	598.2
288.119	602.4
288.508	601.6
288.897	607.6
289.286	599
289.675	610.6
290.064	617
290.453	610.4
290.821	609.8
291.21	622.6
291.599	603.8
291.989	610
292.378	614.2
292.768	620.8
293.157	621.2
293.547	615.8
293.936	617
294.326	607.2
294.716	615.2
295.106	608.6
295.496	615.6
295.886	617
296.276	615.4
296.666	604.6
297.056	609.4
297.446	605.6
297.836	629.8
298.227	608.8
298.617	606
299.008	621.2
299.398	610.8
299.789	612.8
300.179	615
300.57	622.4
300.961	607.2
301.352	604.2
301.742	619
302.133	605.8
302.524	606.2
302.915	609.8
303.307	601.6
303.698	615.8
304.089	621.8
304.48	607
304.872	607.4
305.263	608.8
305.655	598
306.046	614.4
306.438	610.4
306.829	604.2
307.221	630.8
307.613	618.4
308.005	620
308.397	616.6
308.789	637.8
309.181	630.4
309.573	620.4
309.965	618.6
310.357	601.6
310.749	617.6
311.142	605.2
311.534	602.8
311.926	615.4
312.319	616.2
312.711	603.8
313.104	616.2
313.497	607.2
313.889	649.4
314.282	618.8
314.675	626
315.068	614.8
315.461	613.6
315.854	641.4
316.247	615.4
316.64	606
317.033	617.8
317.405	618.2
317.798	611.2
318.192	614.6
318.585	598.8
318.979	617.8
319.372	598.8
319.766	608.4
320.16	615.8
320.553	630
320.947	622.2
321.341	607.4
321.735	598.8
322.129	600.8
322.523	628.4
322.917	604.2
323.311	628.2
323.705	619.8
324.099	621
324.494	626.8
324.888	625.6
325.282	611.6
325.677	617.8
326.071	616.6
326.466	629.8
326.861	612
327.255	621.2
327.65	622.8
328.045	627.8
328.44	614.2
328.835	608.8
329.23	604
329.625	635.4
330.02	608
330.415	635.2
330.81	619
331.206	612
331.601	603.4
331.996	612.2
332.37	622.4
332.766	597.6
333.161	648.8
333.557	609.2
333.953	610
334.348	864.4
334.744	609.6
335.14	600.2
335.536	608.8
335.932	613.4
336.328	612
336.724	614.2
337.12	611
337.516	615.2
337.913	610.6
338.309	621.8
338.705	617.6
339.102	616.8
339.498	612.2
339.895	617
340.291	605.2
340.688	618.8
341.085	595.8
341.481	606.4
341.878	614.8
342.275	629
342.672	608.4
343.069	601.6
343.466	587.8
343.842	613.6
344.239	605.2
344.636	607
345.033	598.8
345.431	598.4
345.828	605.4
346.225	601
346.623	649.4
347.02	607.6
347.418	617.8
347.816	618.2
348.213	598.8
348.611	613.2
349.009	596.6
349.407	614.8
349.805	597.6
350.203	593.4
350.601	619.2
350.999	605.6
351.397	645.6
351.795	603.8
352.193	618.8
352.57	607.6
352.969	611.2
353.367	601
353.766	596.8
354.164	604.2
354.563	623.2
354.961	602
355.36	610.2
355.759	604.4
356.158	606.6
356.557	605.6
356.956	595.8
357.355	600.2
357.754	610.8
358.153	612
358.552	628.4
358.951	598.4
359.35	620.6
359.75	604.2
360.149	601.6
360.527	588
360.926	597.4
361.326	606.4
361.726	604
362.125	595.6
362.525	612.6
362.925	602.4
363.325	611.6
363.724	602.6
364.124	600.2
364.524	597.4
364.924	601.8
365.324	612.8
365.725	599.4
366.125	611.8
366.525	594.2
366.904	597
367.304	595.8
367.705	629.4
368.105	608
368.506	603.2
368.906	605.8
369.307	599.4
369.708	602.8
370.108	594.6
370.509	612.2
370.91	597.8
371.311	602
371.712	611
372.113	603
372.514	591
372.894	600.6
373.295	602
373.696	613.2
374.097	604.6
374.499	633
374.9	611.2
375.301	596.6
375.703	609.4
376.105	591.2
376.506	607.2
376.908	606.2
377.309	606
377.711	603.8
378.113	596
378.493	597.4
378.895	594
379.297	603.2
379.699	595
380.102	600
380.504	599.6
380.906	596.2
381.308	618.8
381.71	594.4
382.113	601.8
382.515	600
382.918	604.8
383.299	591.6
383.701	606.2
384.104	601
384.507	582.4
384.909	604.8
385.312	586.4
385.715	588
386.118	600.4
386.521	590.6
386.924	609.2
387.327	594.4
387.709	593.6
388.112	586.2
388.515	604
388.918	603.2
389.322	602.4
389.725	595.8
390.129	620.6
390.532	602
390.936	602.2
391.339	592.6
391.743	606
392.125	594.2
392.529	610
392.933	610
393.337	604
393.74	598.4
394.144	603.6
394.548	591.4
394.953	597.4
395.357	600.8
395.761	592.4
396.144	607.4
396.548	601.2
396.952	600.8
397.357	609.4
397.761	599
398.166	597.8
398.57	597.8
398.975	598.6
399.379	599.2
399.763	646
400.168	598
400.572	596.8
400.977	602
401.382	609.4
401.787	612.4
402.192	615.4
402.597	611.6
403.002	587.6
403.386	613.4
403.791	611.8
404.197	591.6
404.602	596
405.007	597.2
405.413	593.2
405.818	596.4
406.224	596.8
406.608	603.8
407.014	593.4
407.42	616.8
407.825	594.4
408.231	607.6
408.637	605.4
409.043	611.8
409.449	594.8
409.834	585.8
410.24	598.8
410.646	608
411.052	614
411.458	598.8
411.865	609.8
412.271	610.6
412.677	602.4
413.062	603.4
413.469	602.2
413.875	622.8
414.282	618.8
414.689	608.6
415.095	599.8
415.502	595.8
415.888	603.4
416.294	586.8
416.701	640.4
417.108	600.4
417.515	614.2
417.923	602.2
418.33	618.4
418.715	614.2
419.123	602
419.53	603.6
419.937	602
420.345	616.8
420.752	603.2
421.16	620.4
421.546	603.2
421.953	614.8
422.361	595.8
422.769	598.6
423.177	598
423.585	633.2
423.992	625
424.379	615.2
424.787	615.2
425.195	620.4
425.603	601.6
426.011	620
426.419	612.8
426.806	604.6
427.214	608.6
427.623	612.8
428.031	625.6
428.44	612.4
428.848	620
429.235	623.8
429.644	600.6
430.053	608.6
430.461	619.8
430.87	624.8
431.279	614
431.666	603.2
432.075	605.8
432.484	610
432.893	601.8
433.302	618.8
433.711	652.6
434.099	605.2
434.508	608.6
434.918	600.2
435.327	611.6
435.737	600.8
436.125	602.2
436.534	605.6
436.944	603.8
437.353	610.8
437.763	620.2
438.173	599
438.561	619.2
438.971	587.6
439.381	608.4
439.791	593.4
440.201	587.4
440.589	606
440.999	600
441.409	610.4
441.819	587.2
442.23	609.4
442.619	609.8
443.029	608.8
443.439	606.8
443.85	610.6
444.26	616.6
444.649	614.6
445.06	600
445.471	593.8
445.881	602
446.292	615.8
446.682	618.8
447.092	593.2
447.503	656.6
447.914	604.8
448.325	598.8
448.715	600
449.126	590.6
449.537	602.2
449.948	608.8
450.338	599.4
450.75	603.8
451.161	615
451.572	609.6
451.984	593.6
452.374	581.4
452.786	600.8
453.197	598.4
453.609	605.4
453.999	586
454.411	589.2
454.823	604.4
455.235	600.8
455.647	602.2
456.037	599.4
456.449	581
456.862	599
457.274	606.4
457.665	583.8
458.077	608
458.489	626
458.902	595.6
459.293	609
459.705	607
460.118	592.2
460.53	603.2
460.921	593.4
461.334	604.4
461.747	595.6
462.16	603.4
462.551	605.6
462.964	604.2
463.377	590.2
463.79	596.2
464.182	600.2
464.595	588.4
465.008	591.6
465.421	593.6
465.813	593.8
466.226	597
466.64	591.4
467.053	636.4
467.445	606.8
467.859	613.2
468.272	604.2
468.686	609
469.078	592.2
469.492	584.8
469.906	593.6
470.298	604.6
470.712	590.8
471.126	640.8
471.54	580.4
471.933	580.4
472.347	598.4
472.761	589
473.175	585.6
473.568	597
473.982	583.2
474.397	601.8
474.79	600.2
475.204	601.6
475.619	588.4
476.033	593.6
476.426	589.8
476.841	582.8
477.256	613.4
477.649	580.8
478.064	581
478.479	581.4
478.872	583.8
479.287	570.6
479.702	586.4
480.118	593.2
480.511	588.8
480.927	588
481.342	587.6
481.736	594.2
482.151	585.6
482.566	595.4
482.96	601.6
483.376	605.6
483.792	594.2
484.186	598.4
484.602	590.6
485.017	587.2
485.412	598.2
485.827	597.8
486.243	598.2
486.638	613.4
487.054	598
487.47	612.6
487.865	593.8
488.281	593.8
488.697	590.6
489.092	591.2
489.508	582.6
489.925	608.8
490.32	583
490.736	598.6
491.153	600.6
491.548	594.8
491.964	598.6
492.381	585.6
492.776	587.8
493.193	587.6
493.61	601.4
494.006	599
494.422	597
494.84	584
495.235	606
495.652	588.2
496.069	591.8
496.465	584.8
496.883	590.6
497.3	613.8
497.696	588.6
498.113	593
498.509	581.2
498.927	585.4
499.344	584
499.741	582.8
500.158	601
500.576	595.2
500.973	595.4
501.39	579.6
501.787	579.2
502.205	590
502.623	591.2
503.02	582
503.438	581.6
503.856	586.6
504.253	590.6
504.671	591.2
505.068	590.6
505.486	588.4
505.905	611.2
506.302	587.4
506.72	599.4
507.118	578
507.536	586
507.955	591.2
508.352	591.2
508.771	598.6
509.169	589.4
509.587	584.2
510.006	589.4
510.404	577.4
510.823	589.2
511.221	585.6
511.64	586
512.038	605.2
512.457	588.6
512.877	599.4
513.275	582.4
513.694	586.2
514.092	588.6
514.512	596.8
514.91	609.2
515.33	593.4
515.749	596.2
516.148	594.6
516.568	589.6
516.966	594.4
517.386	579
517.785	586
518.205	595
518.603	587.6
519.024	586.6
519.444	594.4
519.843	596.2
520.263	606.2
520.662	596.4
521.082	584.6
521.481	592.2
521.902	587.8
522.301	598.6
522.722	599
523.121	591.8
523.542	601.2
523.963	593.8
524.362	585.2
524.783	591.2
525.183	595.6
525.604	598.2
526.003	590.6
526.425	584.6
526.824	591
527.246	600.4
527.646	595.8
528.067	593.4
528.467	592.8
528.888	592
529.289	592.8
529.71	594
530.11	589
530.532	578.6
530.932	579.8
531.354	587.2
531.755	621.8
532.176	594
532.577	585.8
532.999	591.2
533.4	589.2
533.822	598.2
534.223	598
534.645	589
535.046	588.8
535.468	590.6
535.869	612.2
536.292	589.6
536.693	629
537.115	592.8
537.516	591.2
537.939	590.8
538.34	603.8
538.742	599.2
539.165	587.4
539.566	598.6
539.989	590.4
540.391	589.4
540.814	594.4
541.216	589.8
541.639	582.8
542.041	594
542.464	595.2
542.866	596
543.268	586
543.691	598
544.093	592
544.517	603.2
544.919	585.2
545.343	613.4
545.745	592.2
546.147	590.6
546.571	578
546.974	586.8
547.398	599.2
547.8	604.2
548.224	585.2
548.627	577.6
549.03	594.8
549.454	583.4
549.857	583.6
550.281	584.2
550.684	581
551.087	598.4
551.512	597.6
551.915	596.6
552.34	592
552.743	590
553.146	592.2
553.571	588.2
553.975	602.8
554.399	594.6
554.803	637.2
555.207	587.2
555.632	581.4
556.036	593.2
556.461	591
556.865	590.8
557.268	587
557.694	587.8
558.098	586.6
558.502	599.6
558.927	584
559.332	594.4
559.736	589.4
560.162	585.4
560.566	585
560.992	592.6
561.396	588.4
561.801	578.2
562.227	590
562.631	583.2
563.036	584.2
563.462	595
563.867	593.2
564.272	574
564.698	590.4
565.103	584.4
565.508	604.2
565.935	586.8
566.34	584
566.745	596.4
567.172	585.4
567.577	609.8
567.982	599.4
568.409	586.8
568.815	583
569.22	591.4
569.626	603
570.053	567
570.459	586.2
570.865	593.2
571.292	584.6
571.698	583.8
572.104	571
572.531	583.2
572.937	600
573.343	578.8
573.75	581
574.177	582.6
574.583	593
574.99	582
575.396	592
575.824	580
576.231	593.6
576.637	579.6
577.065	606.4
577.472	577.4
577.879	590.8
578.286	600
578.714	576.4
579.121	595.2
579.528	583.8
579.935	594.2
580.364	589.8
580.771	573.8
581.178	588.8
581.585	593.2
582.014	592.6
582.421	588.8
582.829	593.4
583.236	594.8
583.644	583.4
584.073	588.4
584.481	589.6
584.889	577.6
585.296	586
585.726	584.8
586.134	576.8
586.542	588.6
586.95	608.4
587.358	583.2
587.787	587
588.196	592.2
588.604	584
589.012	585.2
589.421	575
589.851	573
590.259	587
590.668	586.4
591.076	611
591.485	577
591.894	590.8
592.324	593.8
592.733	599.4
593.142	576.2
593.551	584.8
593.96	613.2
594.369	579.6
594.8	576.6
595.209	589.6
595.618	567.6
596.028	580.8
596.437	576.8
596.847	588.2
597.256	593
597.687	589.4
598.097	579.2
598.507	574.6
598.917	588
599.327	585.4
599.736	591.4
600.146	600.6
600.556	585
600.988	601.2
601.398	584.8
601.808	592.8
602.219	569.4
602.629	584
603.039	587.6
603.45	605.6
603.86	588.2
604.271	596
604.703	590.6
605.114	581.8
605.525	594.4
605.935	592.8
606.346	597.8
606.757	587.2
607.168	578.2
607.579	580.2
607.99	586.6
608.402	590.2
608.813	590
609.224	586
609.636	574.2
610.047	582.8
610.48	586.6
610.892	590
611.303	599.6
611.715	582.8
612.127	574
612.539	579.2
612.95	585.8
613.362	577.4
613.774	568.8
614.186	580
614.599	580.2
615.011	595
615.423	591.4
615.835	583.2
616.248	581
616.66	587.2
617.073	581.6
617.485	587.8
617.898	594.4
618.311	588.6
618.723	585
619.136	609.2
619.549	590
619.962	612
620.375	586
620.788	590.8
621.201	581.6
621.614	590
622.028	593
622.441	593.4
622.854	596.4
623.268	580.6
623.681	593.6
624.095	584
624.509	594.2
624.922	597.6
625.336	574.6
625.728	589.6
626.142	600.2
626.556	604.2
626.97	597.6
627.384	577.6
627.799	587.2
628.213	593.2
628.627	579.8
629.041	589.8
629.456	589
629.87	589.6
630.285	595.8
630.699	598.6
631.093	589.6
631.507	594.4
631.922	585.6
632.337	601
632.752	586.2
633.167	588
633.582	583
633.997	582.2
634.412	578.2
634.806	590.4
635.221	574
635.637	596
636.052	582.8
636.468	582.2
636.883	609.8
637.299	583.4
637.715	568
638.109	589.4
638.525	577.6
638.941	600.4
639.357	582
639.773	595.4
640.189	582.2
640.584	593.4
641	579.6
641.416	574.6
641.832	581
642.249	579.4
642.665	587.4
643.06	587
643.477	592
643.894	568.4
644.31	583.4
644.727	569.4
645.123	583.6
645.54	574.4
645.957	578.4
646.374	591
646.77	586.2
647.187	608.6
647.604	583.4
648.021	571.2
648.439	580.2
648.835	587.4
649.252	578.6
649.67	576.6
650.088	586.4
650.484	586.4
650.902	588
651.32	587.8
651.738	578.8
652.134	580.6
652.552	597
652.971	590
653.389	576
653.786	596.6
654.204	603
654.622	573
655.019	592.8
655.438	588.4
655.857	585
656.275	580
656.673	579.6
657.091	588.8
657.51	583.4
657.908	594.2
658.327	601.6
658.746	566.2
659.144	582
659.563	604.4
659.982	587.6
660.38	579.8
660.8	582
661.219	595.4
661.617	581.6
662.037	585.2
662.457	593.2
662.855	566.8
663.275	612.2
663.695	580
664.094	578.2
664.514	586.8
664.934	577
665.333	589.4
665.753	570.4
666.152	570.6
666.572	577.4
666.993	598.2
667.392	573.8
667.812	575.2
668.212	578.6
668.632	594.6
669.053	579.2
669.453	582.2
669.874	579.4
670.273	586.4
670.694	569
671.116	592.6
671.515	587.8
671.937	581.4
672.337	569
672.758	572
673.158	584.8
673.58	567.2
673.98	583.2
674.402	591
674.824	580.8
675.224	583.2
675.646	575.8
676.047	580.4
676.469	583
676.869	593.2
677.292	582.6
677.693	582.2
678.115	582.8
678.516	585.2
678.939	590
679.34	583
679.762	589.4
680.164	589.6
680.586	570.4
680.988	582
681.411	600.2
681.812	575.2
682.236	575.4
682.637	577.8
683.061	570.8
683.462	579
683.864	585.8
684.288	581
684.69	570
685.114	584.8
685.516	585.4
685.94	575
686.342	588
686.766	577
687.168	576.2
687.571	596.2
687.995	582.6
688.398	569.8
688.822	576
689.225	595.2
689.628	596
690.052	577.4
690.456	579.6
690.88	576.4
691.284	576.4
691.687	583.6
692.112	575.6
692.515	582
692.919	589.4
693.344	583.8
693.747	579.4
694.173	573
694.577	595.4
694.98	579.4
695.406	572.2
695.81	585.6
696.214	584.8
696.64	580.4
697.044	584.2
697.448	591.4
697.874	579
698.279	576.6
698.684	567.6
699.11	576
699.514	581.6
699.919	577.8
700.324	570.6
700.75	582.6
701.156	575
701.561	582
701.987	587.8
702.393	594.8
702.798	584.8
703.203	584.2
703.63	576.8
704.036	574.2
704.442	578.6
704.847	573.2
705.274	585.4
705.68	585.8
706.086	594.8
706.492	573.8
706.92	580.6
707.326	593.2
707.732	574
708.139	574.4
708.545	572.2
708.973	580.2
709.38	575.6
709.786	570.6
710.193	593.6
710.6	589.8
711.028	574.2
711.435	582.8
711.842	579.4
712.249	577.4
712.656	586
713.064	589.4
713.492	573.4
713.9	576.4
714.307	578.6
714.715	583.2
715.123	583.2
715.53	579
715.938	593.4
716.367	583.2
716.775	578.4
717.184	574.6
717.592	582.4
718	585.8
718.408	622.6
718.816	620.2
719.225	588.4
719.633	584.4
720.042	577.6
720.472	580.2
720.881	595.4
721.29	592.6
721.699	576.4
722.108	577
722.517	585.6
722.926	580.6
723.335	593.8
723.744	580.4
724.154	582
724.563	580.2
724.973	582.6
725.382	578.4
725.792	586.8
726.202	569.2
726.612	597.4
727.022	582
727.432	569.2
779.813	575.8
780.223	618.8
780.634	576.8
781.044	578.6
781.454	587
781.865	591.4
782.276	581.6
782.686	580.6
783.097	578.4
783.508	575.6
783.919	583.6
784.33	591.6
784.741	592
785.152	578
785.563	563.4
785.974	576.6
786.386	586.6
786.776	578.6
787.188	584
787.599	571.2
788.011	582
788.423	580.8
788.835	575.8
789.247	566.2
789.659	572
790.071	574.6
790.483	613.6
790.874	577
791.286	592.8
791.699	576.2
792.111	583.4
792.524	581.8
792.937	577
793.349	577.2
793.741	570.2
794.154	568.8
794.567	599.8
794.98	575.4
795.393	577
795.785	593.4
796.198	577.2
796.612	577.6
797.026	579.6
797.439	562.4
797.831	573.8
798.245	581.2
798.659	575
799.073	572.2
799.487	572
799.88	578.2
800.294	579
800.708	588
801.123	580.4
801.516	594.2
801.93	568
802.345	566
802.76	585.2
803.153	591.2
803.568	597.8
803.983	590
804.377	575.2
804.792	573.4
805.207	561
805.601	573.8
806.016	608.4
806.432	572.2
806.826	602
807.242	594
807.658	585.6
808.052	564.8
808.468	575.6
808.884	570
809.279	579.6
809.695	599.4
810.111	594.4
810.506	578.4
810.922	603.6
811.339	572
811.734	581
812.151	582.2
812.546	574.4
812.963	583.8
813.38	582
813.776	573.8
814.193	600.2
814.589	568.2
815.006	574.8
815.402	572.4
815.82	573.2
816.237	579.2
816.633	576.2
817.051	570
817.448	572.4
817.866	559.6
818.262	587.6
818.68	566.4
819.077	562.4
819.495	577.8
819.892	610.4
820.311	570
820.708	575.6
821.127	568.6
821.524	589.6
821.943	571.4
822.34	589.2
822.759	585.6
823.157	579.8
823.576	588.2
823.974	582.4
824.393	599.2
824.791	578.6
825.189	567.2
825.609	572.4
826.007	587
826.427	565.2
826.826	577.4
827.246	583.8
827.644	562.4
828.043	588.2
828.463	578.4
828.862	591
829.261	586.4
829.682	563
830.081	587
830.502	575.4
830.901	579.6
831.301	591
831.722	575.8
832.121	571.6
832.521	568.4
832.943	573.2
833.342	582
833.742	569.2
834.164	573.6
834.564	567.2
834.965	570.8
835.386	569.4
835.787	572
836.188	580.2
836.588	573.4
837.01	572
837.411	567.8
837.812	588.4
838.213	578.4
838.636	571.6
839.037	641.4
839.438	585
839.84	576.4
840.263	583
840.664	572.6
841.066	578.2
841.468	576
841.891	570.8
842.293	589.2
842.695	588
843.098	576.8
843.5	574.4
843.902	579.4
844.326	576.2
844.729	582.2
845.131	589.2
845.534	581.4
845.937	586
846.34	590.2
846.764	566
847.167	577.2
847.571	564.4
847.974	577
848.377	570.4
848.781	619.2
849.184	581.4
849.588	576.8
849.992	571.6
850.396	572.2
850.821	591.4
851.225	582
851.63	571.4
852.034	593
852.438	578.6
852.843	647.2
853.247	572.8
853.652	570.4
854.057	593.4
854.462	585.2
854.867	575
855.272	605.4
855.677	576.8
856.082	568
856.487	564.2
856.893	581.4
857.298	578.2
857.704	573
858.11	571.2
858.516	588.6
858.922	578.8
859.328	582.8
859.734	575.2
860.14	579.2
860.525	573.6
860.931	567.8
861.338	582.8
861.745	578.8
862.151	583
862.558	576.4
862.965	567.6
863.372	579
863.779	568.8
864.186	597.4
864.572	579.8
864.98	583.4
865.387	598.4
865.795	573
866.203	582.2
866.61	574
867.018	580.8
867.405	581
867.813	574.8
868.221	573.6
868.63	577.2
869.038	586.8
869.425	612.2
869.834	581
870.243	567.2
870.652	565.2
871.039	569.4
871.448	569.6
871.857	586.6
872.266	574.4
872.654	575
873.064	575.8
873.473	585
873.883	571.4
874.271	574
874.681	592.4
875.091	567.2
875.48	589.2
875.89	604.2
876.3	573.2
876.689	564
877.1	581.2
877.51	569.4
877.9	599.8
878.31	575.4
878.721	605.4
879.111	571.8
879.522	578
879.933	564.6
880.323	570.6
880.734	576.2
881.125	575.2
881.536	567
881.948	566.4
882.338	571.2
882.75	582.2
883.141	572
883.553	584.2
883.944	593.2
884.356	595.6
884.769	570
885.16	576.4
885.573	577.6
885.964	568
886.377	569.2
886.768	567
887.181	577.2
887.573	577.4
887.987	583.2
888.378	583.2
888.792	576.8
889.184	627.2
889.598	568.8
889.99	574.4
890.383	573.2
890.797	556.2
891.19	585.8
891.604	567.2
891.997	564.2
892.411	565.6
892.805	570.6
893.198	573.6
893.613	559.6
894.006	567.8
894.421	570.2
894.815	571.4
895.209	568.8
895.624	609.4
896.018	596
896.412	565.8
896.828	572.6
897.222	572.2
897.617	566.8
898.033	590
898.427	576.6
898.822	573.4
899.239	567.4
899.634	569.8
900.029	588
900.424	569.4
900.841	568.8
901.236	580.8
901.632	582.8
902.027	621.8
902.445	583.6
902.841	579.6
903.237	574
903.633	586.6
904.05	577.6
904.447	571.8
904.843	579.4
905.24	573.4
905.636	559.8
906.033	576
906.451	582
906.848	565.4
907.246	569.2
907.643	575
908.04	577.4
908.438	584.8
908.835	583
909.254	573.2
909.652	579.8
910.05	574.8
910.448	571.4
910.846	575.8
911.244	563.2
911.643	577.8
912.041	564
912.44	575.2
912.839	564.8
913.237	571.2
913.636	559.4
914.035	578.2
914.434	565.2
914.834	583.6
915.233	577.6
915.633	567.6
916.032	572.8
916.432	566.8
916.832	583
917.232	567.6
917.632	562.4
918.032	572.2
918.432	572.6
918.833	562.4
919.233	572.4
919.634	558
920.035	578.4
920.436	563.6
920.837	579.8
921.238	567.2
921.639	568.4
922.019	583
922.42	576.8
922.822	584.4
923.224	571.8
923.625	567
924.027	568.4
924.429	591.6
924.81	571.8
925.212	578
925.615	576.4
926.017	581
926.42	581
926.801	572
927.204	572
927.607	572.6
928.01	582.4
928.413	570
928.795	554.8
929.199	570.2
929.602	569.2
930.006	562.8
930.388	569
930.792	575.6
931.196	566.6
931.579	612.2
931.983	569.4
932.388	618.8
932.771	568
933.176	567
933.58	572.2
933.964	587.8
934.369	563.8
934.774	579.2
935.158	569.6
935.563	574.8
935.947	575.6
936.353	578.4
936.759	565.8
937.143	582.6
937.549	577.2
937.934	586.4
938.34	601.2
938.746	568
939.131	565
939.538	568.6
939.923	575
940.33	572
940.716	571
941.123	578.6
941.508	581.6
941.916	591
942.302	576.4
942.709	562.8
943.096	564.2
943.503	582.6
943.89	568.8
944.298	569.2
944.685	597.6
945.072	571.4
945.48	580.8
945.867	568.6
946.276	574.2
946.663	596.6
947.051	590.4
947.46	575.4
947.848	578.4
948.257	569.6
948.645	576.6
949.033	564.2
949.443	573
949.831	616.6
950.22	572
950.63	572
951.018	603
951.407	576.2
951.796	569
952.207	578.8
952.596	583
952.985	561.4
953.375	610.6
953.786	572.8
954.176	569.4
954.566	579.2
954.956	568.4
955.367	571.8
955.758	586.6
956.148	569
956.539	588.4
956.929	569.6
957.341	560
957.732	566.2
958.123	579.8
958.515	560.8
958.906	571.8
959.297	570.2
959.689	577.6
960.102	569.2
960.494	576.6
960.886	571.4
961.278	562.2
961.67	589.2
962.062	606.8
962.455	571.2
962.847	560
963.24	577
963.633	572.4
964.026	566.8
964.419	572.8
964.812	585.2
965.206	575.6
965.599	578.8
965.993	573.8
966.386	571
966.78	579.8
967.174	585.4
967.569	571.8
967.963	567
968.357	559.8
968.752	561.6
969.146	570.2
969.541	567.2
969.936	573.8
970.331	574.8
970.705	571.4
971.1	567.8
971.496	580.4
971.892	564.2
972.287	568
972.683	567.8
973.079	573.6
973.454	582.4
973.85	576.8
974.247	580.6
974.643	592.6
975.04	576.4
975.415	580.6
975.812	566.8
976.209	566.4
976.607	560.6
976.982	577
977.38	586.6
977.778	575.6
978.175	576.4
978.552	580.6
978.95	576
979.348	575.6
979.725	618.4
980.123	573.2
980.522	566.4
980.899	570.8
981.298	576
981.697	568.8
982.075	568.4
982.474	562.8
982.852	571
983.251	573.6
983.651	569.4
984.029	571.2
984.429	575.8
984.808	554.8
985.208	570.2
985.609	564.4
985.987	558.2
986.388	574.8
986.768	573.2
987.168	576
987.548	574.6
987.949	578.8
988.329	582.4
988.731	555.6
989.111	577
989.491	568.6
989.893	574.2
990.273	575
990.676	565
991.057	565.4
991.459	570.4
991.84	571
992.221	564.4
992.624	587.8
993.006	575
993.388	566
993.791	579.6
994.173	577.6
994.576	598.6
994.959	552.4
995.341	564.6
995.724	563.2
996.128	576
996.511	569.8
996.894	567.6
997.298	571
997.681	574.2
998.065	571.4
998.448	563.8
998.854	577.4
999.237	561.6
999.621	571
1000.01	586.6
1000.39	580.6
1000.8	562.4
1001.18	571.8
1001.56	575
1001.95	566
1002.33	580.4
1002.72	573.4
1003.13	579.4
1003.51	572.6
1003.9	562.6
1004.28	585.4
1004.67	564
1005.06	569.2
1005.44	596.4
1005.83	558.8
1006.21	559.2
1006.6	560
1006.99	575.6
1007.37	575
1007.76	579.6
1060.12	565.4
1060.51	561.2
1060.89	568.6
1061.28	574.4
1061.67	578
1062.06	580.4
1062.45	573.6
1062.83	561.4
1063.22	575.4
1063.61	610.6
1064	576
1064.39	574.8
1064.78	569.8
1065.14	584.8
1065.53	571.2
1065.92	575.6
1066.31	566
1066.7	570.6
1067.09	580.2
1067.46	580.2
1067.85	561.2
1068.24	571.6
1068.63	574.4
1069.02	565.8
1069.39	578.8
1069.78	560.8
1070.17	564.2
1070.57	560.6
1070.93	569.2
1071.33	553.2
1071.72	565.2
1072.11	561.4
1072.48	575.2
1072.87	572.4
1073.26	562.6
1073.64	562.4
1074.03	565.4
1074.4	562
1074.79	558.8
1075.19	576.8
1075.56	575.8
1075.95	569.6
1076.34	569.6
1076.72	566.6
1077.11	577
1077.48	581.4
1077.88	575.8
1078.25	571.8
1078.64	569.2
1079.02	573
1079.41	569.6
1079.78	568.2
1080.18	561.4
1080.55	625.2
1080.95	564
1081.32	569.2
1081.72	573
1082.09	570.2
1082.49	554.8
1082.86	559.8
1083.24	567.2
1083.63	553.8
1084.01	560.6
1084.38	572.4
1084.78	565
1085.16	571.8
1085.55	580.2
1085.93	578.4
1086.31	560
1086.7	590.8
1087.08	563.6
1087.46	575.6
1087.83	559.8
1088.23	574
1088.61	571.4
1088.99	575.8
1089.36	566.4
1089.76	570
1090.14	569
1090.52	567.8
1090.9	562.6
1091.27	576.4
1091.67	591.2
1092.05	572.6
1092.43	560.6
1092.81	573.8
1093.19	579.8
1093.57	561.2
1093.95	569
1094.35	582.4
1094.73	581.8
1095.11	568
1095.49	559.6
1095.87	564.4
1096.25	585.6
1096.63	581.6
1097.01	571.4
1097.39	575
1097.77	569.4
1098.15	571.2
1098.53	563.4
1098.91	567.2
1099.29	571.8
1099.68	584.2
1100.06	576.8
1100.44	567.4
1100.82	573.4
1101.18	572.2
1101.56	561.8
1101.95	564
1102.33	570.4
1102.71	564.8
1103.1	561.6
1103.48	559.2
1103.86	562.8
1104.22	582
1104.61	567.6
1104.99	561
1105.38	564
1105.76	579
1106.12	571.8
1106.51	596.2
1106.89	579.4
1107.26	571.4
1107.64	576
1108.03	565.8
1108.41	569.8
1108.78	567.2
1109.16	574
1109.55	577.4
1109.91	557
1110.3	555.8
1110.69	576.6
1111.05	562.2
1111.44	569
1111.8	571.8
1112.19	575.8
1112.58	565.4
1112.94	573
1113.33	566.6
1113.7	556.4
1114.09	563.4
1114.45	565
1114.84	568.6
1115.21	579.8
1115.6	564
1115.96	573.8
1116.35	574.2
1116.72	567.8
1117.11	580.2
1117.48	568.2
1117.85	573.6
1118.24	586.4
1118.6	571.8
1118.99	568.6
1119.36	576.6
1119.73	571.4
1120.12	572.4
1120.49	556.8
1120.86	574.2
1121.25	565.8
1121.62	564.6
1121.99	572
1122.38	585.4
1122.76	567
1123.13	566.2
1123.5	571.2
1123.89	580.2
1124.26	552.4
1124.63	565.4
1125	567.8
1125.4	557
1125.77	561.6
1126.14	552.6
1126.51	562.8
1126.88	567.6
1127.26	563.6
1127.63	553.4
1128.02	558.6
1128.4	569.4
1128.77	569.6
1129.14	570
1129.52	569.4
1129.89	576.4
1130.26	564
1130.64	561.4
1131.01	567.2
