#lambda/nm	C1
208.295	534.4
208.67	482.8
209.045	445.2
209.419	445.6
209.794	605.6
210.169	595
210.544	695.8
210.919	612.6
211.295	596.4
211.67	607.4
212.045	603.2
212.421	592.6
212.796	639.6
213.172	595
213.547	595
213.923	601.2
214.299	598.2
214.675	610.8
215.051	605.2
215.427	616.6
215.803	620.2
216.179	612.8
216.555	599.8
216.932	615
217.308	603.8
217.684	600
218.061	609.8
218.438	609.8
218.814	599.8
219.191	610.8
219.568	603.4
219.945	603
220.322	616
220.699	609.2
221.076	614.8
221.453	612
221.83	592.8
222.208	603.2
222.585	608.8
222.962	604.4
223.34	606
223.717	603.6
224.095	595.8
224.473	594.2
224.851	599.2
225.229	591.2
225.607	619.4
225.985	601.6
226.363	604
226.741	603.2
227.119	602.2
227.497	618
227.876	587.6
228.254	610.6
228.633	612.8
229.011	607.8
229.39	610.4
229.769	599.4
230.148	611.8
230.527	624
230.905	598
231.284	610.6
231.664	602.2
232.043	620.2
232.422	617
232.801	601.8
233.181	606.6
233.56	598.4
233.94	612
234.319	593.6
234.699	602.8
235.079	648
235.458	646.2
235.838	615.8
236.218	603.2
236.598	596
236.978	601.8
237.358	595.2
237.738	602.4
238.119	609.8
238.499	597.6
238.88	603.4
239.26	619
239.641	591.2
240.021	605
240.402	597.8
240.783	604.8
241.163	600.8
241.544	605
241.925	607.8
242.306	619.2
242.687	611.4
243.069	605.8
243.45	604.8
243.831	597.4
244.212	600.6
244.594	634.6
244.975	617.6
245.357	607.8
245.739	596.8
246.12	603.6
246.502	614.8
246.884	602.6
247.266	608.2
247.648	606.4
248.03	614.2
248.412	608.4
248.794	606
249.176	599.2
249.559	613.4
249.941	593.4
250.323	601.6
250.706	595.6
251.089	596
251.471	600.4
251.854	602.8
252.237	602
252.62	611
253.002	612
253.385	603.6
253.769	610.4
254.152	607.4
254.535	611
254.918	599
255.301	599.8
255.685	600.6
256.068	597.2
256.452	630.2
256.835	613
257.219	603
257.603	608.8
257.986	601.4
258.37	606
258.754	595.8
259.138	605
259.522	616
259.906	605.2
260.29	607.8
260.675	601.4
261.059	609.6
261.443	596.2
261.828	612.6
262.212	611
262.597	593.8
262.981	608.4
263.366	614.4
263.751	610.4
264.136	597.2
264.521	607.4
264.906	595.4
265.291	615.6
265.676	601
266.061	613.6
266.446	623.6
266.831	614.4
267.217	624.4
267.602	607
267.987	609.6
268.373	596.4
268.759	611.4
269.144	608.8
269.53	602.4
269.916	601.8
270.302	600
270.688	614.6
271.074	604.6
271.46	615.8
271.846	634.4
272.232	607.6
272.618	590.8
273.004	604.2
273.391	607
273.777	613
274.164	610.6
274.55	615
274.937	610.2
275.324	598.8
275.71	614
276.097	607.8
276.484	603.6
276.871	605.8
277.258	609.8
277.645	593.2
278.032	600.2
278.419	603.6
278.807	609
279.194	594.6
279.581	596.6
279.969	610
280.356	604.6
280.744	603.4
281.131	628
281.519	617.4
281.907	596.8
282.295	604.2
282.682	618.2
283.07	605.4
283.458	609
283.846	616.4
284.235	616
284.623	624.4
285.011	595.6
285.399	603.6
285.788	600.6
286.176	593.4
286.565	611.6
286.953	604
287.342	595.2
287.731	595.6
288.119	602.4
288.508	598.4
288.897	603.8
289.286	594.2
289.675	605.8
290.064	609.4
290.453	603.2
290.821	606.6
291.21	616.8
291.599	597.2
291.989	608.2
292.378	615.2
292.768	623.6
293.157	617.8
293.547	617
293.936	604.4
294.326	599.4
294.716	607.4
295.106	605.2
295.496	615.6
295.886	614.8
296.276	603.4
296.666	608.2
297.056	603.8
297.446	592.6
297.836	623
298.227	603.6
298.617	605.8
299.008	614.8
299.398	611.4
299.789	598.4
300.179	607.6
300.57	621
300.961	598.8
301.352	598.6
301.742	611.4
302.133	615.8
302.524	605.2
302.915	610.6
303.307	602.4
303.698	617
304.089	615.4
304.48	601.8
304.872	612.6
305.263	604.6
305.655	601.8
306.046	615.6
306.438	615.4
306.829	595.8
307.221	616.4
307.613	609.8
308.005	612.6
308.397	617
308.789	628.2
309.181	630.8
309.573	615
309.965	615.8
310.357	610.2
310.749	612.6
311.142	594
311.534	602.2
311.926	612
312.319	607.6
312.711	604
313.104	621.4
313.497	605.8
313.889	641.2
314.282	613.6
314.675	631.8
315.068	603.8
315.461	609.4
315.854	624.4
316.247	611.6
316.64	604.2
317.033	614.4
317.405	615.4
317.798	601.2
318.192	620.2
318.585	601.6
318.979	619.6
319.372	600
319.766	604.6
320.16	609
320.553	618.2
320.947	620.2
321.341	603.2
321.735	602.4
322.129	584.6
322.523	621.8
322.917	599.4
323.311	612.6
323.705	607.8
324.099	613.4
324.494	624
324.888	621.6
325.282	601.2
325.677	617
326.071	614
326.466	609.8
326.861	603.8
327.255	618.2
327.65	620.2
328.045	612.8
328.44	613
328.835	610.6
329.23	597.4
329.625	622
330.02	610.2
330.415	630.4
330.81	607
331.206	602.6
331.601	605.8
331.996	613
332.37	621.2
332.766	590.6
333.161	627
333.557	600.8
333.953	612.8
334.348	944.6
334.744	607.2
335.14	604
335.536	600.6
335.932	615.2
336.328	605.4
336.724	613.6
337.12	608.4
337.516	615.8
337.913	606
338.309	620
338.705	612.8
339.102	619.8
339.498	612
339.895	619.8
340.291	606.6
340.688	610.4
341.085	594.6
341.481	601.8
341.878	603
342.275	622
342.672	594.4
343.069	602
343.466	591.2
343.842	612.4
344.239	594.8
344.636	602
345.033	602.6
345.431	595.8
345.828	610.6
346.225	598.6
346.623	639.8
347.02	604.4
347.418	611.2
347.816	619.4
348.213	595
348.611	600.2
349.009	603.2
349.407	613.2
349.805	586.4
350.203	587.4
350.601	615.6
350.999	590.8
351.397	643.2
351.795	609
352.193	607.4
352.57	605.4
352.969	610.8
353.367	597.8
353.766	587.4
354.164	596.2
354.563	610
354.961	606
355.36	595.6
355.759	608.8
356.158	592.8
356.557	588.6
356.956	597.6
357.355	596.4
357.754	608
358.153	605
358.552	617.6
358.951	594.8
359.35	615.6
359.75	596
360.149	592.6
360.527	580.4
360.926	593.4
361.326	600
361.726	603.8
362.125	603.2
362.525	605.2
362.925	600.8
363.325	601.6
363.724	601.6
364.124	598.8
364.524	595.4
364.924	597.4
365.324	608.4
365.725	582.6
366.125	602
366.525	601.6
366.904	591.8
367.304	583.4
367.705	621
368.105	608.2
368.506	593.4
368.906	597.4
369.307	599.4
369.708	598.4
370.108	586.6
370.509	605
370.91	593.6
371.311	595.4
371.712	603
372.113	600.6
372.514	584.8
372.894	595.4
373.295	592.8
373.696	606.2
374.097	605.2
374.499	620
374.9	595.8
375.301	596.6
375.703	597.8
376.105	596
376.506	598.4
376.908	598.4
377.309	594.4
377.711	601.8
378.113	597.8
378.493	599.4
378.895	598.8
379.297	604.8
379.699	589.2
380.102	603.8
380.504	602.4
380.906	587.6
381.308	619.6
381.71	591.4
382.113	604.6
382.515	602.6
382.918	601.8
383.299	598.6
383.701	604.8
384.104	596.6
384.507	585.4
384.909	596.8
385.312	593
385.715	591.6
386.118	596.8
386.521	587.2
386.924	608.8
387.327	590
387.709	594.4
388.112	578.2
388.515	593.2
388.918	597
389.322	613.4
389.725	589
390.129	630.4
390.532	606.4
390.936	594.6
391.339	590
391.743	597.6
392.125	590.2
392.529	597.8
392.933	596.6
393.337	599
393.74	599
394.144	597.8
394.548	592
394.953	597.2
395.357	600.8
395.761	596
396.144	595.4
396.548	591.6
396.952	591
397.357	591.2
397.761	596.6
398.166	592.6
398.57	593.4
398.975	585.2
399.379	599
399.763	648
400.168	595.4
400.572	592.8
400.977	598.2
401.382	611.8
401.787	600
402.192	609
402.597	607.8
403.002	587.8
403.386	615.4
403.791	618.6
404.197	597.8
404.602	601
405.007	593.8
405.413	588.2
405.818	602.8
406.224	595.4
406.608	593.4
407.014	594.8
407.42	611
407.825	584.4
408.231	611
408.637	594.6
409.043	610.2
409.449	596.2
409.834	590
410.24	605.2
410.646	601.8
411.052	605.2
411.458	605.4
411.865	599.8
412.271	618.6
412.677	594.8
413.062	603.4
413.469	589.2
413.875	623.6
414.282	618.4
414.689	601.6
415.095	603.4
415.502	595
415.888	596
416.294	580.2
416.701	636.2
417.108	596.4
417.515	608.8
417.923	599.8
418.33	616.4
418.715	600.4
419.123	595
419.53	585.8
419.937	593.2
420.345	608.8
420.752	597.2
421.16	615.2
421.546	598.2
421.953	604.4
422.361	591.8
422.769	594.2
423.177	599.4
423.585	621.2
423.992	627.4
424.379	616
424.787	611.4
425.195	619.2
425.603	591
426.011	605
426.419	609.2
426.806	600.4
427.214	604.6
427.623	609.6
428.031	613
428.44	603.2
428.848	613.8
429.235	614
429.644	606
430.053	610.6
430.461	626
430.87	622.8
431.279	613.4
431.666	601.4
432.075	607.2
432.484	605.8
432.893	596.2
433.302	617.8
433.711	637.2
434.099	610.6
434.508	603.4
434.918	591.2
435.327	613
435.737	603
436.125	599
436.534	602.8
436.944	606
437.353	607.2
437.763	611.6
438.173	599.2
438.561	608.2
438.971	588
439.381	600.4
439.791	591.8
440.201	576.4
440.589	594.6
440.999	600.8
441.409	601.2
441.819	590.6
442.23	615.6
442.619	603.4
443.029	603
443.439	601.2
443.85	604.8
444.26	611
444.649	605.2
445.06	596.6
445.471	593.2
445.881	597.8
446.292	613.6
446.682	615.4
447.092	585.2
447.503	637.6
447.914	594
448.325	590.8
448.715	596.8
449.126	591
449.537	593.2
449.948	593.8
450.338	599.6
450.75	608.2
451.161	603
451.572	594.6
451.984	587.4
452.374	580.6
452.786	597.2
453.197	602.6
453.609	598
453.999	584.8
454.411	581.4
454.823	609.4
455.235	606.4
455.647	593.8
456.037	600.8
456.449	580.6
456.862	601.4
457.274	597.8
457.665	587.2
458.077	598.6
458.489	613.6
458.902	599.2
459.293	593.4
459.705	590.8
460.118	592.6
460.53	602.6
460.921	596
461.334	597.8
461.747	596.6
462.16	609.2
462.551	607.6
462.964	598.6
463.377	580.4
463.79	594.4
464.182	600.2
464.595	589.6
465.008	600.6
465.421	587.4
465.813	593
466.226	595.8
466.64	593.8
467.053	629.8
467.445	604.2
467.859	607.6
468.272	590.8
468.686	609.6
469.078	595.8
469.492	582.6
469.906	587.6
470.298	597.2
470.712	597
471.126	626.8
471.54	582.6
471.933	590
472.347	588.2
472.761	588
473.175	583
473.568	592.4
473.982	582.8
474.397	585.8
474.79	590.8
475.204	600.8
475.619	590.4
476.033	593.6
476.426	593.6
476.841	583.8
477.256	612
477.649	578.6
478.064	587.4
478.479	578
478.872	594.2
479.287	567
479.702	582.4
480.118	589.8
480.511	597.2
480.927	596.4
481.342	583.4
481.736	594.6
482.151	579.6
482.566	595.8
482.96	593.8
483.376	601.4
483.792	583
484.186	591.8
484.602	588.2
485.017	589.6
485.412	590.6
485.827	591.4
486.243	592
486.638	613
487.054	605.4
487.47	605
487.865	594.8
488.281	591.6
488.697	593.4
489.092	585
489.508	582.8
489.925	600.6
490.32	589
490.736	593.4
491.153	592
491.548	592.2
491.964	592.2
492.381	575.4
492.776	598.4
493.193	585.6
493.61	598
494.006	592.2
494.422	594.2
494.84	581
495.235	596.4
495.652	592.8
496.069	588.6
496.465	578.2
496.883	587
497.3	614.4
497.696	586.8
498.113	593.2
498.509	581.6
498.927	576.6
499.344	590.8
499.741	584.8
500.158	605
500.576	595.6
500.973	583.4
501.39	576.6
501.787	574.2
502.205	590
502.623	587
503.02	579.2
503.438	582.2
503.856	585.4
504.253	589.6
504.671	590.4
505.068	587.4
505.486	576.4
505.905	600.4
506.302	586
506.72	599.8
507.118	587
507.536	585.6
507.955	585.2
508.352	591.2
508.771	599.2
509.169	596.2
509.587	580.2
510.006	593.2
510.404	577.8
510.823	584
511.221	584.2
511.64	591.8
512.038	597.2
512.457	585.2
512.877	593.2
513.275	586.8
513.694	586.8
514.092	583.2
514.512	594.6
514.91	590
515.33	580.4
515.749	580.8
516.148	591.6
516.568	590.8
516.966	587.8
517.386	585.2
517.785	587.4
518.205	579.4
518.603	577.6
519.024	583.2
519.444	589.2
519.843	592.2
520.263	599.6
520.662	595.2
521.082	584.4
521.481	588.8
521.902	586
522.301	597.8
522.722	586.6
523.121	585.8
523.542	583
523.963	584.2
524.362	593.4
524.783	590.4
525.183	594.6
525.604	596.6
526.003	583.2
526.425	584.6
526.824	586.2
527.246	590.6
527.646	596.8
528.067	592.6
528.467	584
528.888	592.8
529.289	595.6
529.71	589.8
530.11	579.6
530.532	582.6
530.932	585.2
531.354	581.4
531.755	620.2
532.176	590.2
532.577	585.6
532.999	596.8
533.4	588.8
533.822	591.4
534.223	602
534.645	592.2
535.046	585.8
535.468	583
535.869	599.8
536.292	585.2
536.693	618.4
537.115	588.6
537.516	580.2
537.939	589.6
538.34	615.8
538.742	598.6
539.165	590.6
539.566	599.6
539.989	581.4
540.391	586.6
540.814	589.8
541.216	585
541.639	579
542.041	594.4
542.464	582.2
542.866	576.2
543.268	571.8
543.691	588.2
544.093	587
544.517	602.8
544.919	574.6
545.343	601
545.745	575.4
546.147	589
546.571	578
546.974	579.4
547.398	579
547.8	587.6
548.224	584.2
548.627	581.4
549.03	590.2
549.454	582.4
549.857	579.2
550.281	579.4
550.684	581.4
551.087	606
551.512	589.2
551.915	587.6
552.34	584.2
552.743	578.4
553.146	585.6
553.571	586.2
553.975	596.4
554.399	579.4
554.803	633.2
555.207	585
555.632	581
556.036	589.4
556.461	580.4
556.865	587.8
557.268	591.8
557.694	585.8
558.098	590.2
558.502	587.8
558.927	588.6
559.332	589.6
559.736	579.6
560.162	587.2
560.566	582.6
560.992	588.6
561.396	574.6
561.801	583.4
562.227	581.4
562.631	579.4
563.036	582.8
563.462	592.2
563.867	590
564.272	572.4
564.698	594
565.103	571.6
565.508	602.6
565.935	591
566.34	585.6
566.745	600
567.172	584.6
567.577	602.2
567.982	588.4
568.409	586.4
568.815	579
569.22	585.8
569.626	588.4
570.053	575.6
570.459	594
570.865	587.8
571.292	587.8
571.698	597
572.104	574
572.531	577
572.937	585.6
573.343	576.4
573.75	583.4
574.177	589.2
574.583	593.6
574.99	577.6
575.396	584.4
575.824	577
576.231	593.4
576.637	574.6
577.065	602.6
577.472	576.6
577.879	577.2
578.286	598.6
578.714	579.6
579.121	587.8
579.528	586
579.935	593
580.364	574.2
580.771	569.4
581.178	571.8
581.585	596.6
582.014	593.6
582.421	576
582.829	581.6
583.236	597.4
583.644	583.2
584.073	590.6
584.481	589.2
584.889	583.4
585.296	592.8
585.726	586.8
586.134	579
586.542	586.8
586.95	598.6
587.358	572
587.787	580.6
588.196	604
588.604	578.2
589.012	580.6
589.421	567
589.851	572.4
590.259	584
590.668	583
591.076	614.6
591.485	573.2
591.894	577.8
592.324	592
592.733	598
593.142	569.6
593.551	577.4
593.96	610
594.369	572.4
594.8	573.6
595.209	580.4
595.618	572.6
596.028	575.8
596.437	564.6
596.847	586
597.256	585.8
597.687	587.2
598.097	587.2
598.507	572.2
598.917	580.2
599.327	592.4
599.736	581.8
600.146	592.8
600.556	588
600.988	592.4
601.398	577
601.808	591.4
602.219	565.6
602.629	582.4
603.039	582.8
603.45	611.2
603.86	592.6
604.271	591.8
604.703	583.6
605.114	587.2
605.525	586.2
605.935	585
606.346	595
606.757	583.4
607.168	582.8
607.579	583.6
607.99	586.2
608.402	580
608.813	591.6
609.224	583.6
609.636	572.6
610.047	575.6
610.48	586.2
610.892	594.8
611.303	587
611.715	580
612.127	577.8
612.539	574
612.95	575.4
613.362	577.6
613.774	580.6
614.186	575.6
614.599	576.8
615.011	592.8
615.423	585.2
615.835	581.2
616.248	577.6
616.66	589.8
617.073	578.6
617.485	583.4
617.898	596.4
618.311	579.4
618.723	578.2
619.136	596.8
619.549	587.8
619.962	604
620.375	576.6
620.788	579.4
621.201	582.6
621.614	592.2
622.028	586.4
622.441	593.6
622.854	597.2
623.268	581.4
623.681	597
624.095	584.6
624.509	592.4
624.922	587.6
625.336	577.6
625.728	582.6
626.142	600.4
626.556	597.6
626.97	595.2
627.384	578.4
627.799	581.6
628.213	590.4
628.627	582
629.041	580.2
629.456	585.8
629.87	583
630.285	584
630.699	590.6
631.093	581.4
631.507	593.4
631.922	589.2
632.337	597
632.752	569.6
633.167	581.4
633.582	580
633.997	576.8
634.412	579
634.806	578.8
635.221	573.2
635.637	587.4
636.052	579.2
636.468	585.2
636.883	598.2
637.299	585.2
637.715	573
638.109	585.8
638.525	569.4
638.941	587.6
639.357	581.8
639.773	588
640.189	575.4
640.584	575.8
641	583
641.416	572.8
641.832	578.4
642.249	578.8
642.665	576.8
643.06	592
643.477	589
643.894	570.2
644.31	582.6
644.727	581.4
645.123	580.2
645.54	574.6
645.957	582.2
646.374	594.8
646.77	587.6
647.187	609.6
647.604	578.4
648.021	565.6
648.439	574
648.835	586.2
649.252	585.2
649.67	583.4
650.088	578.4
650.484	581.2
650.902	577.6
651.32	587.4
651.738	583.8
652.134	587.4
652.552	599.2
652.971	583.6
653.389	584
653.786	587.2
654.204	593.8
654.622	578.2
655.019	575.8
655.438	581.2
655.857	577
656.275	584.8
656.673	578.4
657.091	587.8
657.51	580
657.908	589.2
658.327	586.8
658.746	567.4
659.144	578.2
659.563	595.8
659.982	581.6
660.38	565.6
660.8	583.6
661.219	585.2
661.617	585.6
662.037	576
662.457	587.6
662.855	564
663.275	607.8
663.695	581.4
664.094	581.6
664.514	579
664.934	570.4
665.333	595.4
665.753	576.4
666.152	573.8
666.572	572.8
666.993	591.6
667.392	571.8
667.812	576.2
668.212	569.4
668.632	588.6
669.053	577.4
669.453	572.8
669.874	578.6
670.273	581.2
670.694	572.6
671.116	590.8
671.515	586
671.937	579.4
672.337	575
672.758	575
673.158	582
673.58	581.4
673.98	580
674.402	595
674.824	582
675.224	578.4
675.646	585.4
676.047	572
676.469	573.8
676.869	588.4
677.292	590
677.693	577.4
678.115	574.4
678.516	592.4
678.939	586
679.34	576.2
679.762	588.4
680.164	587.6
680.586	578.4
680.988	581.4
681.411	611.4
681.812	572.6
682.236	561
682.637	579.8
683.061	571.8
683.462	583.6
683.864	581.6
684.288	585.4
684.69	574.2
685.114	586.4
685.516	583.8
685.94	574.2
686.342	584.4
686.766	572.6
687.168	573.4
687.571	593
687.995	577.2
688.398	569.4
688.822	578
689.225	591.8
689.628	591.4
690.052	581.4
690.456	590.4
690.88	574
691.284	573.4
691.687	572.6
692.112	569.2
692.515	569.2
692.919	574.2
693.344	582.2
693.747	572.6
694.173	575.4
694.577	589.6
694.98	580.8
695.406	571
695.81	581.6
696.214	577.2
696.64	577.2
697.044	577
697.448	588
697.874	573.8
698.279	580
698.684	576.2
699.11	569.6
699.514	568.2
699.919	581.6
700.324	576.4
700.75	577
701.156	575.8
701.561	585.2
701.987	585
702.393	589
702.798	594.2
703.203	576.2
703.63	581.6
704.036	575.6
704.442	585
704.847	572.4
705.274	581
705.68	582
706.086	583
706.492	570.6
706.92	580.4
707.326	585
707.732	576.8
708.139	574.4
708.545	561.4
708.973	571.8
709.38	579.6
709.786	571
710.193	584.2
710.6	579.4
711.028	571.8
711.435	571.2
711.842	580.8
712.249	569.2
712.656	581
713.064	587.8
713.492	571.4
713.9	570.6
714.307	581.4
714.715	576.4
715.123	573.8
715.53	576.2
715.938	589.8
716.367	574.8
716.775	575.8
717.184	571.4
717.592	576.8
718	589.8
718.408	607.8
718.816	617
719.225	578.4
719.633	575.2
720.042	565.2
720.472	570.4
720.881	596.4
721.29	577
721.699	575.6
722.108	580
722.517	578.6
722.926	571
723.335	583.4
723.744	576.4
724.154	579
724.563	582.8
724.973	577.8
725.382	577.6
725.792	580
726.202	572.6
726.612	594
727.022	581.2
727.432	570.4
779.813	575.8
780.223	613.8
780.634	572
781.044	572.8
781.454	579.8
781.865	593
782.276	571.4
782.686	586.8
783.097	573.2
783.508	574.4
783.919	582
784.33	583.2
784.741	594
785.152	569.2
785.563	569.2
785.974	570
786.386	579.6
786.776	575.4
787.188	580
787.599	568.6
788.011	580.4
788.423	583.6
788.835	579.4
789.247	568.2
789.659	566.4
790.071	576
790.483	611.8
790.874	569.8
791.286	582.4
791.699	581.6
792.111	578
792.524	582
792.937	572.2
793.349	568.2
793.741	574.2
794.154	567
794.567	593.6
794.98	565.4
795.393	564
795.785	586.8
796.198	573.2
796.612	573.6
797.026	567.6
797.439	564.2
797.831	570.2
798.245	570.2
798.659	569.2
799.073	569.2
799.487	579.6
799.88	576.6
800.294	577.8
800.708	572.2
801.123	577.2
801.516	591.2
801.93	566.6
802.345	565.4
802.76	576.2
803.153	590
803.568	589.4
803.983	585.8
804.377	578.8
804.792	557.8
805.207	565.8
805.601	576
806.016	612.6
806.432	571.4
806.826	607
807.242	584
807.658	577
808.052	580.8
808.468	579.8
808.884	572.2
809.279	576.4
809.695	586
810.111	592.2
810.506	576
810.922	592.6
811.339	569.6
811.734	585.8
812.151	565.6
812.546	571.8
812.963	565.4
813.38	578.4
813.776	569.2
814.193	593.4
814.589	570.4
815.006	575
815.402	566.4
815.82	567.4
816.237	576.6
816.633	578.6
817.051	563.6
817.448	573.4
817.866	562
818.262	584.4
818.68	561.8
819.077	563.6
819.495	573
819.892	614.2
820.311	567.8
820.708	568.4
821.127	569.2
821.524	576.6
821.943	574
822.34	601.2
822.759	569.2
823.157	572.4
823.576	586.2
823.974	585
824.393	620.6
824.791	576.6
825.189	561.2
825.609	570
826.007	581.8
826.427	561.6
826.826	573.6
827.246	576.6
827.644	562.6
828.043	581.2
828.463	572.2
828.862	591
829.261	588.2
829.682	563.6
830.081	585
830.502	569.6
830.901	577.8
831.301	593.8
831.722	564.2
832.121	579
832.521	563.4
832.943	570.6
833.342	572.2
833.742	561.8
834.164	571.4
834.564	562.4
834.965	564.4
835.386	570
835.787	567.8
836.188	570
836.588	578.8
837.01	571.8
837.411	562.2
837.812	581.4
838.213	573.2
838.636	574.8
839.037	627.4
839.438	573.2
839.84	575.2
840.263	587.4
840.664	577.8
841.066	574.6
841.468	576.2
841.891	566
842.293	583
842.695	579.4
843.098	577.8
843.5	571
843.902	576.4
844.326	578.8
844.729	576.4
845.131	582.2
845.534	573.2
845.937	588.2
846.34	590.4
846.764	575.2
847.167	572.6
847.571	565
847.974	574.2
848.377	560
848.781	611
849.184	585.8
849.588	569.6
849.992	572.4
850.396	576
850.821	583.8
851.225	579.6
851.63	584.4
852.034	586.6
852.438	579
852.843	647.2
853.247	572.8
853.652	560.8
854.057	591
854.462	576.6
854.867	578
855.272	597.8
855.677	576.4
856.082	562.4
856.487	559.8
856.893	570.8
857.298	564
857.704	565.4
858.11	573.6
858.516	576.6
858.922	577.2
859.328	580.2
859.734	576.2
860.14	586
860.525	580.8
860.931	573.2
861.338	572
861.745	575.6
862.151	583.8
862.558	574.6
862.965	563.8
863.372	569.8
863.779	576
864.186	592.2
864.572	572.6
864.98	584.2
865.387	605
865.795	569
866.203	577.2
866.61	568.2
867.018	572
867.405	576.4
867.813	567.2
868.221	571
868.63	571.6
869.038	577.2
869.425	603.2
869.834	586
870.243	570.8
870.652	566.6
871.039	572.4
871.448	577.4
871.857	585.8
872.266	570.6
872.654	571
873.064	570
873.473	583.6
873.883	574.2
874.271	571.4
874.681	584.4
875.091	554.6
875.48	589
875.89	589
876.3	572.8
876.689	566.6
877.1	572.6
877.51	581.4
877.9	597.6
878.31	566.6
878.721	607.2
879.111	573.4
879.522	573.8
879.933	569.6
880.323	563.2
880.734	567.2
881.125	575.4
881.536	573.4
881.948	560.4
882.338	573.2
882.75	578.4
883.141	572
883.553	573.2
883.944	599.2
884.356	570
884.769	569
885.16	579
885.573	564.8
885.964	559.4
886.377	571
886.768	567.4
887.181	567.6
887.573	554.4
887.987	580.4
888.378	587
888.792	572.2
889.184	608.6
889.598	562.6
889.99	568.6
890.383	571.2
890.797	562.4
891.19	576.8
891.604	564.4
891.997	567.2
892.411	568.2
892.805	563
893.198	564.4
893.613	561
894.006	569.8
894.421	568.4
894.815	570.2
895.209	570
895.624	610
896.018	589.4
896.412	570.6
896.828	575.2
897.222	580.6
897.617	573
898.033	590.4
898.427	573
898.822	571.4
899.239	559.6
899.634	566
900.029	586
900.424	569.8
900.841	564
901.236	580
901.632	578
902.027	623
902.445	573.4
902.841	572.2
903.237	570.4
903.633	582.2
904.05	576.6
904.447	574.2
904.843	581.2
905.24	574.2
905.636	568.8
906.033	566
906.451	585.8
906.848	566.2
907.246	569.8
907.643	567.2
908.04	575.8
908.438	593.2
908.835	574.2
909.254	571
909.652	569.6
910.05	570.8
910.448	563
910.846	572.4
911.244	561.8
911.643	570.8
912.041	567.2
912.44	587.2
912.839	566.4
913.237	568.4
913.636	567.4
914.035	574.8
914.434	562.4
914.834	587.8
915.233	579.2
915.633	567
916.032	571.6
916.432	562.4
916.832	581
917.232	565
917.632	557.6
918.032	573.6
918.432	568.2
918.833	567.4
919.233	574.6
919.634	565.4
920.035	574.6
920.436	569.4
920.837	572.6
921.238	561.8
921.639	567.6
922.019	572
922.42	578.6
922.822	575.8
923.224	569
923.625	568.6
924.027	574.6
924.429	586
924.81	570.8
925.212	575
925.615	568.4
926.017	570.4
926.42	579.6
926.801	570.2
927.204	574
927.607	581.4
928.01	573.8
928.413	570.4
928.795	560.6
929.199	563.4
929.602	568.6
930.006	565.6
930.388	567.8
930.792	574
931.196	571.2
931.579	599.4
931.983	564.4
932.388	603.8
932.771	571.4
933.176	566.2
933.58	573.4
933.964	578.4
934.369	561.6
934.774	577
935.158	565
935.563	573.6
935.947	569
936.353	588.6
936.759	568.8
937.143	573.6
937.549	568.8
937.934	581.4
938.34	585.8
938.746	562.2
939.131	566.6
939.538	559
939.923	567.8
940.33	567
940.716	571.6
941.123	569.6
941.508	582.4
941.916	587.6
942.302	578
942.709	571.2
943.096	566.8
943.503	572.4
943.89	570.6
944.298	566
944.685	600.2
945.072	570.6
945.48	583.4
945.867	570.2
946.276	561.2
946.663	595.2
947.051	587.6
947.46	580.8
947.848	571.4
948.257	571.6
948.645	571.2
949.033	564.8
949.443	563.4
949.831	604.6
950.22	566.8
950.63	581.4
951.018	594
951.407	568.4
951.796	562.6
952.207	574
952.596	579.4
952.985	561.2
953.375	608
953.786	568.6
954.176	563
954.566	576
954.956	565
955.367	572
955.758	584.2
956.148	561.6
956.539	582.8
956.929	565
957.341	563.2
957.732	567.4
958.123	579.4
958.515	560
958.906	573
959.297	566.8
959.689	561
960.102	562.2
960.494	571.8
960.886	566.2
961.278	564.2
961.67	588.6
962.062	604.2
962.455	567.2
962.847	567.2
963.24	560
963.633	568
964.026	565.8
964.419	572.8
964.812	579.8
965.206	568.6
965.599	574.2
965.993	573.2
966.386	568.2
966.78	588.8
967.174	584
967.569	565.6
967.963	565.2
968.357	560.8
968.752	567.4
969.146	567.6
969.541	563.6
969.936	566.8
970.331	570.2
970.705	573.6
971.1	567.8
971.496	578
971.892	563
972.287	566.4
972.683	569.4
973.079	567.4
973.454	586
973.85	569.2
974.247	573.6
974.643	595.2
975.04	569.8
975.415	573
975.812	561
976.209	571.4
976.607	562
976.982	575.2
977.38	589.2
977.778	564
978.175	564.6
978.552	573
978.95	572.4
979.348	571
979.725	619.6
980.123	565.4
980.522	566.4
980.899	567.6
981.298	569.6
981.697	573.2
982.075	564.6
982.474	560.6
982.852	576
983.251	579
983.651	569
984.029	574
984.429	572.2
984.808	564.8
985.208	563.8
985.609	568.2
985.987	565.2
986.388	564.2
986.768	571.6
987.168	558.4
987.548	573.6
987.949	579.2
988.329	568
988.731	565
989.111	570
989.491	560.4
989.893	574.8
990.273	573.2
990.676	564.2
991.057	554.2
991.459	563
991.84	565.4
992.221	560
992.624	575.2
993.006	571.4
993.388	571
993.791	571
994.173	572.8
994.576	599.2
994.959	556
995.341	564.8
995.724	568.8
996.128	570
996.511	565.4
996.894	560
997.298	564.2
997.681	574.8
998.065	568.2
998.448	557.6
998.854	578.8
999.237	567.4
999.621	578.8
1000.01	573.6
1000.39	566
1000.8	568.2
1001.18	573.2
1001.56	577.8
1001.95	568.2
1002.33	573
1002.72	565.4
1003.13	568.4
1003.51	564.4
1003.9	565.4
1004.28	576
1004.67	568.4
1005.06	563.4
1005.44	597.6
1005.83	553
1006.21	562.8
1006.6	562.6
1006.99	572.6
1007.37	575.2
1007.76	574
1060.12	559.8
1060.51	567
1060.89	581.6
1061.28	575.4
1061.67	583.6
1062.06	572.6
1062.45	570
1062.83	567.6
1063.22	576.2
1063.61	605.2
1064	569
1064.39	568.8
1064.78	565.8
1065.14	574
1065.53	573.2
1065.92	562.2
1066.31	570.6
1066.7	571
1067.09	584.8
1067.46	576.8
1067.85	568
1068.24	558.2
1068.63	572.8
1069.02	568.6
1069.39	571.8
1069.78	563.6
1070.17	559.8
1070.57	562.8
1070.93	571.6
1071.33	561
1071.72	576.2
1072.11	563.2
1072.48	561.6
1072.87	565.4
1073.26	566
1073.64	561.4
1074.03	557.6
1074.4	558.2
1074.79	570
1075.19	569.6
1075.56	565.4
1075.95	574.4
1076.34	571.8
1076.72	564.6
1077.11	565.2
1077.48	578.2
1077.88	569.6
1078.25	565
1078.64	571.8
1079.02	572.4
1079.41	566.6
1079.78	561.2
1080.18	566.6
1080.55	626.2
1080.95	560.6
1081.32	559.2
1081.72	563.2
1082.09	569
1082.49	552.2
1082.86	557.6
1083.24	557.8
1083.63	559.4
1084.01	564.4
1084.38	574.8
1084.78	561.4
1085.16	564.8
1085.55	578.6
1085.93	582.6
1086.31	556.4
1086.7	588.8
1087.08	569.4
1087.46	560.6
1087.83	557.2
1088.23	574.2
1088.61	561.8
1088.99	569.2
1089.36	562
1089.76	563.6
1090.14	562.8
1090.52	569.2
1090.9	555.6
1091.27	573.2
1091.67	583.4
1092.05	576.6
1092.43	554.8
1092.81	574.2
1093.19	572.8
1093.57	559.2
1093.95	562
1094.35	578.6
1094.73	575.2
1095.11	563
1095.49	559.2
1095.87	566.8
1096.25	579.8
1096.63	573.8
1097.01	564.6
1097.39	573.4
1097.77	566.6
1098.15	565
1098.53	562.6
1098.91	565.2
1099.29	568.6
1099.68	585.8
1100.06	570.2
1100.44	568
1100.82	566
1101.18	575.2
1101.56	559.4
1101.95	558.6
1102.33	569.4
1102.71	564.8
1103.1	564.6
1103.48	563.2
1103.86	559.4
1104.22	573.2
1104.61	562.4
1104.99	564.2
1105.38	567.2
1105.76	568
1106.12	567.2
1106.51	598.6
1106.89	570
1107.26	574.6
1107.64	576.2
1108.03	564.4
1108.41	565
1108.78	567.6
1109.16	569
1109.55	573.8
1109.91	557.4
1110.3	552.4
1110.69	577.8
1111.05	554
1111.44	568
1111.8	561
1112.19	565.6
1112.58	572.6
1112.94	567
1113.33	558.6
1113.7	549.8
1114.09	566.8
1114.45	558.6
1114.84	568.4
1115.21	569.4
1115.6	563.2
1115.96	562.2
1116.35	573.4
1116.72	562.4
1117.11	583.8
1117.48	568
1117.85	567.6
1118.24	580.2
1118.6	561.6
1118.99	557
1119.36	568.8
1119.73	559.6
1120.12	563.6
1120.49	554.8
1120.86	574.6
1121.25	563
1121.62	557.6
1121.99	557.4
1122.38	580.2
1122.76	567.4
1123.13	560.6
1123.5	575.8
1123.89	577.4
1124.26	559.4
1124.63	564.4
1125	564.4
1125.4	562
1125.77	558
1126.14	550.6
1126.51	562.4
1126.88	569.6
1127.26	556.2
1127.63	552.2
1128.02	559
1128.4	557.4
1128.77	560
1129.14	563.4
1129.52	565.2
1129.89	570.2
1130.26	557.2
1130.64	561
1131.01	568.8
