#lambda/nm	C1
208.295	528.6
208.67	487.2
209.045	445.8
209.419	441.8
209.794	609.6
210.169	599
210.544	701.8
210.919	613.4
211.295	592.8
211.67	611.8
212.045	609.8
212.421	608.8
212.796	641.8
213.172	611.6
213.547	604
213.923	617.8
214.299	605.4
214.675	613.6
215.051	607.4
215.427	610.2
215.803	622
216.179	614.4
216.555	614
216.932	611.8
217.308	613.6
217.684	615.8
218.061	620
218.438	609.4
218.814	606.8
219.191	617
219.568	605.4
219.945	607.6
220.322	615.8
220.699	615
221.076	610.6
221.453	608.6
221.83	594.6
222.208	599.2
222.585	596.2
222.962	607
223.34	614.6
223.717	611.2
224.095	605.4
224.473	612.4
224.851	603.2
225.229	597.6
225.607	623.4
225.985	601.8
226.363	609.2
226.741	607.8
227.119	611
227.497	621.6
227.876	601.6
228.254	607
228.633	615.2
229.011	614
229.39	611.4
229.769	606.6
230.148	616.4
230.527	625
230.905	607
231.284	609.4
231.664	605.8
232.043	614.6
232.422	612.6
232.801	608.6
233.181	604.8
233.56	608
233.94	601.6
234.319	596.2
234.699	597.8
235.079	647.8
235.458	642.8
235.838	620.2
236.218	599
236.598	596
236.978	603
237.358	597.4
237.738	602.2
238.119	619.4
238.499	597.6
238.88	616.4
239.26	620.2
239.641	597.8
240.021	598
240.402	604
240.783	602.2
241.163	601.8
241.544	608.4
241.925	610
242.306	621
242.687	612.2
243.069	606.2
243.45	612.4
243.831	608
244.212	604.6
244.594	637.8
244.975	618.4
245.357	600.8
245.739	601.6
246.12	606.4
246.502	622
246.884	610.2
247.266	602.2
247.648	610.6
248.03	608.2
248.412	601.4
248.794	605.8
249.176	598.4
249.559	618
249.941	598.6
250.323	599
250.706	597.8
251.089	611.6
251.471	606.2
251.854	602.4
252.237	608.4
252.62	603.2
253.002	612.6
253.385	601.2
253.769	606.6
254.152	605.6
254.535	612.6
254.918	601.6
255.301	607.4
255.685	603
256.068	603.6
256.452	628.8
256.835	617.6
257.219	620.6
257.603	618.2
257.986	606.6
258.37	615.2
258.754	598.4
259.138	610.4
259.522	614.8
259.906	602.4
260.29	618.6
260.675	609
261.059	603.4
261.443	599.6
261.828	613.8
262.212	610.2
262.597	599.6
262.981	597.6
263.366	619
263.751	619.2
264.136	607.6
264.521	604.4
264.906	603.2
265.291	616.2
265.676	601.4
266.061	608.4
266.446	621.8
266.831	608.8
267.217	624.8
267.602	612
267.987	610
268.373	606.6
268.759	615.2
269.144	616
269.53	614.2
269.916	604.2
270.302	599
270.688	614
271.074	603.8
271.46	614.4
271.846	645.8
272.232	606.4
272.618	597.6
273.004	617
273.391	613
273.777	614.8
274.164	611.6
274.55	627.4
274.937	612.6
275.324	602
275.71	619.4
276.097	611.4
276.484	602
276.871	608.4
277.258	609.8
277.645	596.4
278.032	605.8
278.419	604.2
278.807	613.2
279.194	605.4
279.581	598.4
279.969	613.6
280.356	614.6
280.744	615
281.131	630.4
281.519	620.2
281.907	607.4
282.295	600.4
282.682	618.4
283.07	614.8
283.458	622.4
283.846	621.8
284.235	609
284.623	619.6
285.011	605.8
285.399	620.8
285.788	607.4
286.176	605.2
286.565	615.2
286.953	608
287.342	610.4
287.731	603.4
288.119	607
288.508	604.6
288.897	610.4
289.286	598.8
289.675	619.4
290.064	624.6
290.453	603
290.821	610
291.21	619
291.599	606.4
291.989	609
292.378	619
292.768	622.4
293.157	619.4
293.547	616
293.936	607.4
294.326	607.4
294.716	614.2
295.106	600.2
295.496	606.2
295.886	619.4
296.276	602
296.666	603.8
297.056	598.8
297.446	595.4
297.836	619
298.227	601
298.617	604
299.008	618.6
299.398	603
299.789	602.6
300.179	610.8
300.57	624.6
300.961	598.8
301.352	601.8
301.742	612.2
302.133	610.2
302.524	602
302.915	612
303.307	601
303.698	618.8
304.089	618.2
304.48	602.6
304.872	609.8
305.263	614.2
305.655	605.2
306.046	615.2
306.438	613
306.829	608.4
307.221	620.4
307.613	606.8
308.005	623.4
308.397	615
308.789	627
309.181	632.2
309.573	623.2
309.965	621.6
310.357	601.6
310.749	615.8
311.142	598.2
311.534	600.6
311.926	617.6
312.319	607.4
312.711	600.2
313.104	622.8
313.497	608.8
313.889	646.2
314.282	619.8
314.675	632.6
315.068	603.8
315.461	614.4
315.854	638
316.247	614.6
316.64	607.2
317.033	607.8
317.405	612
317.798	608
318.192	604.8
318.585	604.4
318.979	613.8
319.372	607
319.766	604.6
320.16	613
320.553	618.2
320.947	622.6
321.341	607.2
321.735	607
322.129	589.6
322.523	636.8
322.917	602.8
323.311	616.2
323.705	613.8
324.099	615.6
324.494	626.8
324.888	618.8
325.282	607
325.677	622.4
326.071	615.6
326.466	621.8
326.861	614.4
327.255	619
327.65	622.2
328.045	626.4
328.44	617
328.835	603.8
329.23	605
329.625	630.8
330.02	604.2
330.415	630.4
330.81	612
331.206	607
331.601	608.4
331.996	618
332.37	624.6
332.766	599.4
333.161	624
333.557	609.2
333.953	612
334.348	922
334.744	603.6
335.14	606.6
335.536	609.2
335.932	617.4
336.328	616.4
336.724	614.6
337.12	610.4
337.516	616.8
337.913	607.8
338.309	614.6
338.705	603.6
339.102	607.4
339.498	599.6
339.895	622.4
340.291	602.2
340.688	604.4
341.085	603.4
341.481	599.4
341.878	612.6
342.275	624.6
342.672	595
343.069	605
343.466	597.4
343.842	623.2
344.239	600.6
344.636	604.2
345.033	596.4
345.431	607.2
345.828	612.4
346.225	605.6
346.623	637.8
347.02	611.6
347.418	623.6
347.816	612.6
348.213	598.2
348.611	605.2
349.009	606
349.407	611
349.805	598
350.203	583.2
350.601	618.2
350.999	600
351.397	646
351.795	607.6
352.193	612.2
352.57	615
352.969	617.2
353.367	599.6
353.766	599.6
354.164	607.8
354.563	609.4
354.961	603.8
355.36	601
355.759	606.2
356.158	596.2
356.557	605.6
356.956	599.4
357.355	588.8
357.754	598.8
358.153	614.8
358.552	630.2
358.951	600.4
359.35	627.4
359.75	603.6
360.149	596.6
360.527	599.6
360.926	588.2
361.326	614
361.726	608
362.125	592.8
362.525	614.4
362.925	602.4
363.325	594.6
363.724	610.8
364.124	599.4
364.524	600.6
364.924	597.4
365.324	616.4
365.725	585
366.125	610.2
366.525	603.2
366.904	593.4
367.304	593
367.705	616.4
368.105	619.2
368.506	598
368.906	606.2
369.307	609.4
369.708	607.4
370.108	600.2
370.509	608.6
370.91	593.6
371.311	601.4
371.712	604.6
372.113	601
372.514	590.8
372.894	607.4
373.295	598.8
373.696	615.4
374.097	604.8
374.499	619
374.9	602.2
375.301	595.6
375.703	601.6
376.105	597
376.506	602
376.908	612.4
377.309	601.8
377.711	602
378.113	591.6
378.493	606.8
378.895	605
379.297	612.8
379.699	591.8
380.102	608.8
380.504	599
380.906	599.6
381.308	625.8
381.71	606.2
382.113	612.8
382.515	603.2
382.918	601
383.299	596.4
383.701	603.6
384.104	600.4
384.507	588.6
384.909	594.2
385.312	589.6
385.715	593.4
386.118	604.2
386.521	590
386.924	615
387.327	593.4
387.709	589
388.112	584.6
388.515	602.6
388.918	601.4
389.322	600.2
389.725	596.2
390.129	626
390.532	604
390.936	599.6
391.339	587.6
391.743	596.8
392.125	595.4
392.529	602.2
392.933	615.8
393.337	596.4
393.74	600.2
394.144	595.4
394.548	589.6
394.953	595.8
395.357	605.6
395.761	592.8
396.144	596.8
396.548	596.4
396.952	591
397.357	598
397.761	593.4
398.166	590
398.57	596.2
398.975	587.6
399.379	596.4
399.763	642
400.168	602.8
400.572	601.4
400.977	583
401.382	611.2
401.787	614.4
402.192	612
402.597	603
403.002	588.4
403.386	612.6
403.791	615.6
404.197	589.2
404.602	596
405.007	606.2
405.413	597.4
405.818	595.2
406.224	594
406.608	592.6
407.014	591.2
407.42	610.8
407.825	600.2
408.231	609.8
408.637	606.2
409.043	609.2
409.449	596.8
409.834	597.8
410.24	602.4
410.646	602.8
411.052	607.4
411.458	607.6
411.865	615.4
412.271	607.6
412.677	604
413.062	610
413.469	599.8
413.875	617.8
414.282	609.8
414.689	606
415.095	607.2
415.502	595.2
415.888	602.8
416.294	587.6
416.701	632.8
417.108	591
417.515	600.2
417.923	594.6
418.33	612.8
418.715	604.2
419.123	601.2
419.53	601.4
419.937	606.8
420.345	613.8
420.752	594.6
421.16	621.2
421.546	609
421.953	604.8
422.361	598.4
422.769	602.4
423.177	585.8
423.585	627.8
423.992	619
424.379	613.8
424.787	608.8
425.195	626.6
425.603	603
426.011	611.2
426.419	624.4
426.806	603.8
427.214	604.4
427.623	610
428.031	623.4
428.44	611.2
428.848	612.2
429.235	623
429.644	609.4
430.053	608
430.461	622
430.87	630
431.279	609
431.666	604.2
432.075	610.6
432.484	603.4
432.893	612
433.302	624
433.711	635.4
434.099	608.4
434.508	603.6
434.918	588.6
435.327	609.6
435.737	604.4
436.125	600
436.534	602
436.944	601.8
437.353	603.2
437.763	623.6
438.173	594.4
438.561	605
438.971	591.6
439.381	596.8
439.791	599.6
440.201	577.2
440.589	598.2
440.999	607.8
441.409	604.2
441.819	590.6
442.23	607.4
442.619	605.2
443.029	598.6
443.439	600.8
443.85	614.6
444.26	620.2
444.649	608.6
445.06	598.6
445.471	591.2
445.881	600.4
446.292	617.4
446.682	617.2
447.092	588.4
447.503	641.8
447.914	596.6
448.325	602.8
448.715	599.4
449.126	591.4
449.537	609.6
449.948	600.6
450.338	605.4
450.75	609.4
451.161	609.6
451.572	610.8
451.984	592.6
452.374	590.2
452.786	601.4
453.197	597
453.609	601.6
453.999	588.8
454.411	592
454.823	603.8
455.235	595.4
455.647	594.6
456.037	609
456.449	587.2
456.862	601.8
457.274	598.2
457.665	595
458.077	598
458.489	625
458.902	594.8
459.293	605.2
459.705	601
460.118	590
460.53	601.4
460.921	597.4
461.334	604
461.747	600.2
462.16	608.6
462.551	604.8
462.964	599.4
463.377	587.6
463.79	595.8
464.182	610.4
464.595	596.4
465.008	599
465.421	607.2
465.813	596.8
466.226	604.6
466.64	599.6
467.053	644.4
467.445	604.6
467.859	616.6
468.272	594.2
468.686	603.2
469.078	594
469.492	588.4
469.906	590.8
470.298	601
470.712	591
471.126	636.2
471.54	582
471.933	592.4
472.347	588.4
472.761	594.2
473.175	594.2
473.568	592.4
473.982	590.4
474.397	592.8
474.79	591.8
475.204	602.2
475.619	596.4
476.033	594
476.426	597.8
476.841	590
477.256	623.8
477.649	584.8
478.064	585.4
478.479	592.2
478.872	591.8
479.287	585
479.702	583
480.118	595
480.511	594.6
480.927	596.4
481.342	583.6
481.736	598.8
482.151	584.8
482.566	599.4
482.96	594.8
483.376	603.8
483.792	592.6
484.186	590.2
484.602	589
485.017	591.8
485.412	588.8
485.827	593.8
486.243	589.6
486.638	617.8
487.054	598.6
487.47	610.2
487.865	587.8
488.281	587.2
488.697	588.8
489.092	596
489.508	597.4
489.925	604.8
490.32	579
490.736	605
491.153	593.6
491.548	590.8
491.964	601.6
492.381	568.4
492.776	598.2
493.193	586.8
493.61	592.4
494.006	588.2
494.422	594
494.84	590
495.235	598.8
495.652	587.4
496.069	590.8
496.465	580.6
496.883	581.8
497.3	606.4
497.696	582
498.113	590.6
498.509	586.2
498.927	583.6
499.344	578.2
499.741	579.4
500.158	596.4
500.576	604
500.973	591.4
501.39	581.8
501.787	580.6
502.205	592.2
502.623	585.4
503.02	587.8
503.438	586.2
503.856	583.4
504.253	592.8
504.671	585
505.068	587.2
505.486	592.4
505.905	614.2
506.302	590.6
506.72	594
507.118	591.2
507.536	587.2
507.955	588.8
508.352	600
508.771	597.8
509.169	597.4
509.587	581.6
510.006	584.6
510.404	580.4
510.823	584.2
511.221	581.4
511.64	587.6
512.038	597.8
512.457	590.8
512.877	581
513.275	584.2
513.694	580.6
514.092	581
514.512	588
514.91	605.6
515.33	591
515.749	593.2
516.148	585.8
516.568	600
516.966	587.8
517.386	577.2
517.785	592.2
518.205	584.4
518.603	585.4
519.024	589
519.444	592.4
519.843	592.2
520.263	601.6
520.662	594.6
521.082	584.2
521.481	584.2
521.902	597.4
522.301	596.2
522.722	590.6
523.121	588.8
523.542	584.8
523.963	583.8
524.362	591.8
524.783	596
525.183	597.2
525.604	590.8
526.003	578.6
526.425	580.6
526.824	592
527.246	603.8
527.646	599.4
528.067	592.6
528.467	586.4
528.888	604.4
529.289	591.8
529.71	586.6
530.11	591.6
530.532	581.8
530.932	590.6
531.354	579.6
531.755	611.8
532.176	600.2
532.577	596.6
532.999	589.2
533.4	586.8
533.822	596.6
534.223	596.6
534.645	588.2
535.046	580.8
535.468	591
535.869	594.6
536.292	589.8
536.693	616
537.115	582.4
537.516	582.4
537.939	581.8
538.34	598.4
538.742	598.6
539.165	589
539.566	594.8
539.989	581.6
540.391	584
540.814	585.4
541.216	594.6
541.639	586.4
542.041	594.8
542.464	579.6
542.866	580.6
543.268	582.2
543.691	592.8
544.093	591.8
544.517	610
544.919	577.4
545.343	610.2
545.745	583.2
546.147	585.2
546.571	581.8
546.974	583
547.398	589
547.8	600.6
548.224	582.8
548.627	588.6
549.03	598.6
549.454	580.2
549.857	581.4
550.281	585.4
550.684	582
551.087	601.4
551.512	597.2
551.915	593
552.34	587.8
552.743	579
553.146	597.8
553.571	588.2
553.975	607.4
554.399	583
554.803	629.6
555.207	580.2
555.632	582.2
556.036	588.6
556.461	583
556.865	590
557.268	586.2
557.694	591
558.098	593.8
558.502	593
558.927	588.8
559.332	579.4
559.736	593.4
560.162	596.8
560.566	580
560.992	595.6
561.396	598.8
561.801	588.6
562.227	594.4
562.631	597.6
563.036	585.4
563.462	594.2
563.867	588
564.272	574.2
564.698	594.6
565.103	577.4
565.508	609.6
565.935	594.6
566.34	585
566.745	597.8
567.172	582.4
567.577	609.6
567.982	598.8
568.409	596.6
568.815	589.6
569.22	595
569.626	586.8
570.053	574
570.459	594
570.865	593.4
571.292	593.6
571.698	588.4
572.104	584
572.531	589.4
572.937	597
573.343	580.4
573.75	582.2
574.177	593.2
574.583	595
574.99	584.6
575.396	599
575.824	586.2
576.231	599.8
576.637	592.8
577.065	610.6
577.472	586.6
577.879	586
578.286	600.6
578.714	576.6
579.121	587.4
579.528	591.2
579.935	595.8
580.364	596.4
580.771	581.6
581.178	586
581.585	593.8
582.014	596
582.421	575.6
582.829	588.4
583.236	598
583.644	587.2
584.073	580.2
584.481	584.6
584.889	582.4
585.296	591.2
585.726	590
586.134	578.2
586.542	572.8
586.95	602
587.358	572.8
587.787	585.6
588.196	592.8
588.604	576.4
589.012	580.6
589.421	580
589.851	580.6
590.259	587.6
590.668	586.2
591.076	617.6
591.485	578.8
591.894	581.6
592.324	599.4
592.733	596.2
593.142	571
593.551	583.8
593.96	584
594.369	570.2
594.8	576.8
595.209	579.8
595.618	577.6
596.028	581.8
596.437	571.4
596.847	582.6
597.256	588.8
597.687	593.2
598.097	580.8
598.507	570.8
598.917	595.6
599.327	596.4
599.736	584.8
600.146	598
600.556	585.4
600.988	593.4
601.398	583.4
601.808	601
602.219	582
602.629	587
603.039	589
603.45	608.6
603.86	590.8
604.271	601.8
604.703	588
605.114	582
605.525	585.4
605.935	596.4
606.346	609.6
606.757	585.6
607.168	588.6
607.579	583.6
607.99	595.4
608.402	583.4
608.813	588.4
609.224	582.6
609.636	569.8
610.047	581.8
610.48	593.2
610.892	591.6
611.303	586.6
611.715	591
612.127	577.2
612.539	590.2
612.95	588
613.362	571
613.774	577.6
614.186	575.2
614.599	580
615.011	596.2
615.423	586.6
615.835	572.8
616.248	575.2
616.66	593.2
617.073	579.6
617.485	586
617.898	589.2
618.311	586.8
618.723	586.4
619.136	610.4
619.549	590.6
619.962	609.2
620.375	574.8
620.788	586.6
621.201	583.6
621.614	580.2
622.028	583.6
622.441	591.6
622.854	598.2
623.268	581.6
623.681	588.8
624.095	590.2
624.509	598
624.922	593.2
625.336	574.2
625.728	585.8
626.142	593
626.556	596.6
626.97	590
627.384	582.8
627.799	580.2
628.213	590.6
628.627	583.4
629.041	579.6
629.456	572.8
629.87	586.4
630.285	590.2
630.699	592.4
631.093	579.2
631.507	585.4
631.922	582.6
632.337	591.2
632.752	572.4
633.167	583.6
633.582	577.6
633.997	583.4
634.412	576.8
634.806	582.4
635.221	572.6
635.637	590.4
636.052	569.8
636.468	584
636.883	598.8
637.299	590.6
637.715	573.4
638.109	584.6
638.525	562.8
638.941	598.2
639.357	585.2
639.773	589.6
640.189	582.2
640.584	580.2
641	584
641.416	569.6
641.832	585.8
642.249	579.6
642.665	583.4
643.06	587.2
643.477	585.8
643.894	573.6
644.31	582.2
644.727	579.6
645.123	578.6
645.54	583.8
645.957	589.8
646.374	590.2
646.77	590.2
647.187	622
647.604	593
648.021	572.6
648.439	575.4
648.835	590.4
649.252	584.8
649.67	579.8
650.088	583.4
650.484	576.8
650.902	593.8
651.32	593.8
651.738	587.4
652.134	583.8
652.552	600.6
652.971	589.4
653.389	581
653.786	599.6
654.204	602.2
654.622	574.2
655.019	583.6
655.438	592.2
655.857	587.4
656.275	593.6
656.673	577.2
657.091	599.2
657.51	585.2
657.908	590.6
658.327	595.8
658.746	576
659.144	580
659.563	595.4
659.982	579.2
660.38	576.6
660.8	576.2
661.219	592.4
661.617	587.8
662.037	587
662.457	602.6
662.855	572.2
663.275	618.8
663.695	590.4
664.094	582.6
664.514	590.8
664.934	573.8
665.333	592.2
665.753	581.8
666.152	568.2
666.572	579.6
666.993	590.8
667.392	583.4
667.812	584.8
668.212	586
668.632	590
669.053	584
669.453	595.8
669.874	579.6
670.273	585.2
670.694	583.8
671.116	597
671.515	584.4
671.937	582.4
672.337	580.4
672.758	575.6
673.158	591.6
673.58	574.4
673.98	583.4
674.402	588.8
674.824	591.8
675.224	582.4
675.646	570.8
676.047	573.2
676.469	584.4
676.869	593.8
677.292	587
677.693	585.2
678.115	572.6
678.516	579.6
678.939	587.8
679.34	586.2
679.762	595.4
680.164	583.8
680.586	581.8
680.988	589
681.411	606.4
681.812	583
682.236	572.6
682.637	577.4
683.061	575.8
683.462	584
683.864	579.8
684.288	590.4
684.69	567.8
685.114	581.6
685.516	584.2
685.94	571.2
686.342	588.2
686.766	573
687.168	578.8
687.571	592
687.995	576.8
688.398	569.2
688.822	569.2
689.225	585.8
689.628	598
690.052	578.8
690.456	578.6
690.88	569.8
691.284	561.8
691.687	587.8
692.112	572
692.515	576.2
692.919	579.2
693.344	578
693.747	574
694.173	576.6
694.577	595.8
694.98	577.4
695.406	573.6
695.81	582.6
696.214	582.2
696.64	580.8
697.044	584.2
697.448	594.4
697.874	588.2
698.279	582.2
698.684	574.8
699.11	575.8
699.514	585.2
699.919	576.8
700.324	578.8
700.75	580
701.156	573.4
701.561	583.8
701.987	589.4
702.393	589.8
702.798	585.4
703.203	578.4
703.63	572.4
704.036	574
704.442	587.2
704.847	558.2
705.274	581.2
705.68	581
706.086	589.2
706.492	562.2
706.92	579
707.326	586.2
707.732	576.4
708.139	569.8
708.545	571.4
708.973	575.8
709.38	577.2
709.786	574.8
710.193	589.4
710.6	577.6
711.028	573.4
711.435	580.2
711.842	581.2
712.249	571.8
712.656	574
713.064	583.4
713.492	576.8
713.9	570
714.307	584.4
714.715	579.8
715.123	581.2
715.53	589
715.938	593.4
716.367	579.6
716.775	580.8
717.184	575
717.592	581
718	593.6
718.408	605.8
718.816	613.6
719.225	581.8
719.633	577.8
720.042	574.4
720.472	581.4
720.881	596.2
721.29	590.6
721.699	569
722.108	580
722.517	582.8
722.926	577.4
723.335	594.6
723.744	581.8
724.154	580.8
724.563	579.2
724.973	579.8
725.382	578.4
725.792	565.4
726.202	570.4
726.612	595.8
727.022	581.2
727.432	575
779.813	578.4
780.223	615.6
780.634	571.4
781.044	575.4
781.454	581.2
781.865	594.2
782.276	574.8
782.686	578.6
783.097	569.4
783.508	582.4
783.919	580.8
784.33	583.2
784.741	586.2
785.152	568.6
785.563	563.4
785.974	566.8
786.386	582.6
786.776	577.2
787.188	583
787.599	568.4
788.011	584
788.423	586.6
788.835	576.6
789.247	569
789.659	577
790.071	569
790.483	620.4
790.874	577.8
791.286	589.2
791.699	574.8
792.111	571.4
792.524	583.6
792.937	571
793.349	575.8
793.741	576
794.154	575.2
794.567	591
794.98	584.2
795.393	569.4
795.785	594.6
796.198	579.2
796.612	583.4
797.026	568.8
797.439	559.4
797.831	578.8
798.245	567.6
798.659	575.8
799.073	578
799.487	578.8
799.88	579.2
800.294	586
800.708	575.2
801.123	585.8
801.516	594
801.93	567.6
802.345	569.8
802.76	579.4
803.153	591.8
803.568	591.8
803.983	587.4
804.377	578.2
804.792	569.6
805.207	566.8
805.601	581.6
806.016	610.6
806.432	574.6
806.826	606
807.242	592.6
807.658	583.2
808.052	569.2
808.468	573.2
808.884	576.2
809.279	578.8
809.695	594.2
810.111	594.6
810.506	580.8
810.922	592
811.339	573.2
811.734	591
812.151	575
812.546	576.8
812.963	573
813.38	581.6
813.776	588.4
814.193	600.4
814.589	567.4
815.006	577.6
815.402	570.8
815.82	577.2
816.237	577.4
816.633	582.2
817.051	570.4
817.448	577.8
817.866	567.8
818.262	593.2
818.68	579.8
819.077	576.8
819.495	573
819.892	622
820.311	574.4
820.708	568
821.127	576.8
821.524	584.2
821.943	579.8
822.34	594.2
822.759	584.4
823.157	574.6
823.576	588.2
823.974	587.6
824.393	622.4
824.791	581
825.189	580.2
825.609	578.8
826.007	576.6
826.427	565
826.826	573.2
827.246	585.4
827.644	561.4
828.043	587
828.463	573.4
828.862	584.6
829.261	583
829.682	563.4
830.081	587.2
830.502	576.2
830.901	577.2
831.301	590.4
831.722	562
832.121	579.6
832.521	571.6
832.943	576
833.342	576.6
833.742	569.6
834.164	574.8
834.564	566.2
834.965	571.2
835.386	568.4
835.787	573.4
836.188	570.2
836.588	577.6
837.01	580
837.411	569
837.812	581.8
838.213	582.8
838.636	565.2
839.037	636.2
839.438	581.4
839.84	567.2
840.263	589
840.664	577.6
841.066	570
841.468	579
841.891	565.2
842.293	586.8
842.695	585.6
843.098	588.2
843.5	569.4
843.902	570.2
844.326	573
844.729	572.4
845.131	590.6
845.534	586.2
845.937	590
846.34	586
846.764	569.4
847.167	581
847.571	572.2
847.974	583.4
848.377	576.6
848.781	613.4
849.184	585
849.588	569
849.992	574.4
850.396	575.8
850.821	594.4
851.225	578.2
851.63	572
852.034	584.2
852.438	576.8
852.843	601.8
853.247	563.6
853.652	566.6
854.057	590
854.462	575.2
854.867	580.2
855.272	596.4
855.677	580.4
856.082	568.2
856.487	570.2
856.893	578.8
857.298	573.2
857.704	573.6
858.11	582.6
858.516	580.4
858.922	578
859.328	585
859.734	576.4
860.14	583
860.525	574.2
860.931	567.4
861.338	570.4
861.745	580.8
862.151	582.4
862.558	575
862.965	575.8
863.372	566.8
863.779	570.2
864.186	592.4
864.572	569.6
864.98	587.2
865.387	604.4
865.795	573.8
866.203	576
866.61	563.4
867.018	578
867.405	588.6
867.813	570.6
868.221	580
868.63	566.8
869.038	583.8
869.425	612.8
869.834	587.8
870.243	581.4
870.652	574.4
871.039	573.2
871.448	570.8
871.857	581.8
872.266	574.4
872.654	570.6
873.064	567.4
873.473	582
873.883	568
874.271	568.6
874.681	587.4
875.091	562.8
875.48	578.4
875.89	590.4
876.3	574.8
876.689	566.8
877.1	575.6
877.51	566.6
877.9	588.2
878.31	571.4
878.721	604.4
879.111	572.4
879.522	572.6
879.933	570
880.323	565
880.734	573.6
881.125	578.2
881.536	569.8
881.948	566.2
882.338	576.6
882.75	576.2
883.141	580.8
883.553	574.2
883.944	594.4
884.356	590.4
884.769	581.6
885.16	579.8
885.573	579.2
885.964	566.6
886.377	583.2
886.768	570.2
887.181	577
887.573	569.4
887.987	580.4
888.378	583.6
888.792	574.2
889.184	611.2
889.598	574.2
889.99	568.6
890.383	573
890.797	560.6
891.19	592
891.604	571.8
891.997	564
892.411	572.2
892.805	574.2
893.198	568.2
893.613	562.4
894.006	570.4
894.421	566.6
894.815	574.6
895.209	568.2
895.624	618.2
896.018	594.4
896.412	572.2
896.828	571.4
897.222	575.2
897.617	571.8
898.033	585.2
898.427	571.8
898.822	577.8
899.239	567.6
899.634	563.4
900.029	588.6
900.424	576.6
900.841	570.6
901.236	587.2
901.632	570
902.027	628
902.445	584.6
902.841	581.2
903.237	579.2
903.633	589.8
904.05	585.8
904.447	572.8
904.843	584.2
905.24	577.4
905.636	573.2
906.033	570.8
906.451	586.6
906.848	562.2
907.246	573.6
907.643	570
908.04	577.2
908.438	588.8
908.835	579.6
909.254	578.2
909.652	579
910.05	578.6
910.448	569
910.846	572
911.244	571.8
911.643	576
912.041	574.4
912.44	587.2
912.839	563
913.237	564.2
913.636	566.6
914.035	576
914.434	580.4
914.834	585.4
915.233	581
915.633	564.8
916.032	574.8
916.432	566.6
916.832	577.2
917.232	578.8
917.632	565.2
918.032	577.6
918.432	580.4
918.833	573.8
919.233	572
919.634	563.6
920.035	569
920.436	568.8
920.837	572.4
921.238	568
921.639	567
922.019	575
922.42	572.8
922.822	584
923.224	566
923.625	563.8
924.027	573.4
924.429	583.4
924.81	569.4
925.212	574.4
925.615	572.6
926.017	577.8
926.42	580.6
926.801	570.2
927.204	580
927.607	576.8
928.01	580.6
928.413	578.8
928.795	560
929.199	561.4
929.602	564.4
930.006	559.4
930.388	565.4
930.792	578.4
931.196	566.6
931.579	600.8
931.983	561
932.388	614.6
932.771	561.8
933.176	559.8
933.58	568.2
933.964	570.4
934.369	561.2
934.774	570.2
935.158	565.2
935.563	573.4
935.947	577.2
936.353	570.8
936.759	572.2
937.143	573
937.549	575.6
937.934	586.8
938.34	588.6
938.746	563.6
939.131	570.8
939.538	567.4
939.923	574.4
940.33	561.2
940.716	571.8
941.123	569.6
941.508	590.8
941.916	596
942.302	581
942.709	572.6
943.096	568.8
943.503	576
943.89	574.6
944.298	572.4
944.685	594.4
945.072	575.4
945.48	581.2
945.867	561.2
946.276	571.2
946.663	587.2
947.051	593
947.46	580.6
947.848	569.6
948.257	578
948.645	567.4
949.033	569.6
949.443	557.4
949.831	619
950.22	567.2
950.63	578.6
951.018	603.4
951.407	577
951.796	569.2
952.207	577
952.596	586.8
952.985	565.8
953.375	608
953.786	575.6
954.176	567.2
954.566	585.6
954.956	564.2
955.367	564
955.758	594
956.148	563
956.539	572.8
956.929	568.6
957.341	563.4
957.732	570.2
958.123	574.8
958.515	567.6
958.906	587.8
959.297	563
959.689	574.8
960.102	560.2
960.494	565.8
960.886	568
961.278	578.6
961.67	594.4
962.062	603.8
962.455	570.4
962.847	560
963.24	566.2
963.633	575.6
964.026	567.8
964.419	569.2
964.812	575.6
965.206	569
965.599	578
965.993	573.6
966.386	567.8
966.78	577.6
967.174	592.8
967.569	566
967.963	569.4
968.357	562.6
968.752	566.6
969.146	573.4
969.541	567.2
969.936	567
970.331	573
970.705	564.4
971.1	572.4
971.496	575.8
971.892	564.4
972.287	567.6
972.683	575.6
973.079	565.8
973.454	577
973.85	566.6
974.247	571.4
974.643	590.6
975.04	566.2
975.415	569.4
975.812	563.6
976.209	576.8
976.607	567.6
976.982	581
977.38	588
977.778	564
978.175	569
978.552	574.2
978.95	583
979.348	576.6
979.725	615.8
980.123	565.6
980.522	567.2
980.899	565
981.298	569.2
981.697	572.4
982.075	569.6
982.474	561.8
982.852	578.8
983.251	569.6
983.651	573.6
984.029	571.2
984.429	574.8
984.808	563
985.208	564.8
985.609	559.8
985.987	559.4
986.388	563.2
986.768	573
987.168	567
987.548	573.4
987.949	577
988.329	579
988.731	566.6
989.111	571.6
989.491	567.6
989.893	577
990.273	577.4
990.676	566
991.057	567.8
991.459	571.2
991.84	572.4
992.221	566
992.624	591.8
993.006	578.8
993.388	564.8
993.791	569.6
994.173	570.6
994.576	593
994.959	562.8
995.341	567
995.724	571.2
996.128	567
996.511	567.2
996.894	572.8
997.298	564.4
997.681	587.8
998.065	571.8
998.448	566.8
998.854	573.6
999.237	562.6
999.621	578
1000.01	581
1000.39	576.2
1000.8	567.8
1001.18	579
1001.56	575.6
1001.95	575.2
1002.33	574.2
1002.72	569
1003.13	574.8
1003.51	569.6
1003.9	574.4
1004.28	577.8
1004.67	562.2
1005.06	580.2
1005.44	596.4
1005.83	566
1006.21	570.2
1006.6	566.4
1006.99	584.2
1007.37	578
1007.76	572.6
1060.12	564.4
1060.51	563
1060.89	579.8
1061.28	584.2
1061.67	583.6
1062.06	577
1062.45	572.2
1062.83	577.2
1063.22	581
1063.61	606.6
1064	577.2
1064.39	568
1064.78	570.4
1065.14	579.8
1065.53	579
1065.92	572.8
1066.31	565.4
1066.7	577.8
1067.09	585.4
1067.46	573.2
1067.85	571.4
1068.24	561.6
1068.63	571.2
1069.02	560.4
1069.39	566.4
1069.78	559.6
1070.17	569.4
1070.57	561.8
1070.93	576.2
1071.33	562.4
1071.72	567.8
1072.11	563
1072.48	566.8
1072.87	569.8
1073.26	565.8
1073.64	564.8
1074.03	556.4
1074.4	560.2
1074.79	554.4
1075.19	565.2
1075.56	565.4
1075.95	567.2
1076.34	565.2
1076.72	569.2
1077.11	575
1077.48	574.6
1077.88	563.2
1078.25	565.8
1078.64	573.4
1079.02	570.2
1079.41	572.8
1079.78	559.4
1080.18	560.6
1080.55	622
1080.95	564.4
1081.32	562.8
1081.72	576
1082.09	568.8
1082.49	561.2
1082.86	564.6
1083.24	566.4
1083.63	551.2
1084.01	566
1084.38	572.4
1084.78	568
1085.16	574.4
1085.55	579.4
1085.93	591.8
1086.31	565.2
1086.7	593.4
1087.08	576.4
1087.46	564.4
1087.83	554
1088.23	587.2
1088.61	562.4
1088.99	575.8
1089.36	566.6
1089.76	577.8
1090.14	569.4
1090.52	562.6
1090.9	567.8
1091.27	585.4
1091.67	585.2
1092.05	571.6
1092.43	566.8
1092.81	585
1093.19	576
1093.57	561
1093.95	562.8
1094.35	584.6
1094.73	576
1095.11	567.6
1095.49	561.4
1095.87	570
1096.25	576
1096.63	576.4
1097.01	561.2
1097.39	566.4
1097.77	567.4
1098.15	570
1098.53	561.4
1098.91	565.6
1099.29	567.2
1099.68	580
1100.06	580.4
1100.44	574.8
1100.82	574.4
1101.18	571.6
1101.56	573.6
1101.95	559.2
1102.33	576
1102.71	567.2
1103.1	566.6
1103.48	558.8
1103.86	561.6
1104.22	572.6
1104.61	573.2
1104.99	566.6
1105.38	559.4
1105.76	571.2
1106.12	567.8
1106.51	604
1106.89	569.4
1107.26	566.2
1107.64	570.2
1108.03	562
1108.41	567.6
1108.78	566.4
1109.16	568.6
1109.55	575.6
1109.91	562
1110.3	558.2
1110.69	584.4
1111.05	567.4
1111.44	572.8
1111.8	565.4
1112.19	561
1112.58	570.8
1112.94	557.6
1113.33	563.8
1113.7	558.4
1114.09	560.6
1114.45	562
1114.84	565.4
1115.21	577
1115.6	562.4
1115.96	574
1116.35	571.2
1116.72	557
1117.11	578.8
1117.48	571
1117.85	564.8
1118.24	575.4
1118.6	575.8
1118.99	563.4
1119.36	570.8
1119.73	566.8
1120.12	563.4
1120.49	562.2
1120.86	575.6
1121.25	565.8
1121.62	558.4
1121.99	565
1122.38	578.2
1122.76	573
1123.13	568.8
1123.5	575.2
1123.89	575.4
1124.26	555
1124.63	567.4
1125	563.2
1125.4	559.8
1125.77	563.2
1126.14	555.2
1126.51	566.2
1126.88	570.6
1127.26	568.2
1127.63	554.4
1128.02	565
1128.4	560.6
1128.77	566
1129.14	572.6
1129.52	563.8
1129.89	572
1130.26	563
1130.64	560
1131.01	558.8
