#lambda/nm	C1
208.295	558.4
208.67	496.8
209.045	455.8
209.419	453.4
209.794	594.6
210.169	583.6
210.544	682
210.919	596.2
211.295	578.8
211.67	590.4
212.045	578
212.421	592.8
212.796	614.6
213.172	584.4
213.547	581.6
213.923	587.4
214.299	581
214.675	592.8
215.051	600.2
215.427	600
215.803	607
216.179	595.4
216.555	593.8
216.932	598.4
217.308	592.6
217.684	592.8
218.061	590.2
218.438	595.8
218.814	584.4
219.191	595.6
219.568	591.4
219.945	581.6
220.322	592.2
220.699	593
221.076	591.6
221.453	590.2
221.83	584.2
222.208	580.2
222.585	589.6
222.962	585.6
223.34	594.2
223.717	585
224.095	586.2
224.473	584
224.851	583.6
225.229	583.8
225.607	607.2
225.985	584.4
226.363	585.2
226.741	584.4
227.119	586.6
227.497	598.6
227.876	579
228.254	597.6
228.633	582.8
229.011	590.8
229.39	604
229.769	590.2
230.148	604.4
230.527	607.2
230.905	593
231.284	592
231.664	581.4
232.043	599.6
232.422	599.8
232.801	580.6
233.181	588
233.56	587.6
233.94	588.8
234.319	573.8
234.699	585.6
235.079	617
235.458	620.4
235.838	597
236.218	577.6
236.598	575.6
236.978	581.8
237.358	578
237.738	588
238.119	590.6
238.499	576
238.88	580.4
239.26	600.8
239.641	584.8
240.021	584
240.402	588.4
240.783	584.4
241.163	578
241.544	589.6
241.925	585.8
242.306	597.2
242.687	589.8
243.069	586.6
243.45	598.6
243.831	583.4
244.212	585.6
244.594	617.6
244.975	592.2
245.357	593.8
245.739	585
246.12	589.8
246.502	599.8
246.884	594.4
247.266	588.2
247.648	582.6
248.03	604
248.412	591.2
248.794	583.6
249.176	583.6
249.559	599
249.941	573.6
250.323	585.2
250.706	581.2
251.089	594
251.471	587.2
251.854	584
252.237	593.2
252.62	593.6
253.002	581.6
253.385	586.2
253.769	593.8
254.152	593.8
254.535	592.6
254.918	579
255.301	585.6
255.685	593.4
256.068	577.2
256.452	610.8
256.835	592.8
257.219	591.4
257.603	601
257.986	585.2
258.37	587.8
258.754	584.2
259.138	595
259.522	594.8
259.906	589.2
260.29	592.2
260.675	587.2
261.059	582.4
261.443	582
261.828	590.6
262.212	594.6
262.597	580.4
262.981	585.2
263.366	590
263.751	595.4
264.136	584
264.521	586
264.906	588.4
265.291	601.2
265.676	576
266.061	588
266.446	595.2
266.831	584.4
267.217	603.6
267.602	593.6
267.987	587.8
268.373	584
268.759	598
269.144	585.8
269.53	585
269.916	575.2
270.302	589.2
270.688	587.2
271.074	589.8
271.46	597.4
271.846	616.4
272.232	593.8
272.618	582.4
273.004	582.4
273.391	595.2
273.777	600.8
274.164	595.8
274.55	602.4
274.937	595.8
275.324	581.4
275.71	598
276.097	591.4
276.484	581.8
276.871	586.4
277.258	593.4
277.645	571
278.032	588.6
278.419	593
278.807	588.2
279.194	583.8
279.581	575
279.969	601.6
280.356	589.2
280.744	586
281.131	608.8
281.519	599.2
281.907	587
282.295	587.6
282.682	592.4
283.07	590
283.458	596.6
283.846	593.8
284.235	597.2
284.623	596.2
285.011	571
285.399	586.8
285.788	584.6
286.176	578.2
286.565	596.6
286.953	581.4
287.342	584.4
287.731	581
288.119	580.4
288.508	581.8
288.897	586
289.286	576.4
289.675	584.4
290.064	598.2
290.453	577.4
290.821	588
291.21	596.4
291.599	583
291.989	590.6
292.378	585.4
292.768	599.4
293.157	588.2
293.547	601.2
293.936	584.2
294.326	585.2
294.716	593
295.106	581.6
295.496	596.8
295.886	595.6
296.276	593.2
296.666	579
297.056	583.6
297.446	582
297.836	598.2
298.227	589.8
298.617	591.6
299.008	597.4
299.398	585.4
299.789	578.8
300.179	589.4
300.57	596.4
300.961	584.8
301.352	590.2
301.742	599.2
302.133	597.4
302.524	584.6
302.915	590.8
303.307	587
303.698	597.4
304.089	594.4
304.48	591.6
304.872	587.4
305.263	587.8
305.655	582.8
306.046	593
306.438	591.8
306.829	587.2
307.221	599.2
307.613	589.2
308.005	588.4
308.397	599.2
308.789	608.2
309.181	597.4
309.573	605
309.965	591.2
310.357	576.4
310.749	604
311.142	576
311.534	584.8
311.926	594.8
312.319	585.6
312.711	580.4
313.104	597.2
313.497	586.6
313.889	625
314.282	605.6
314.675	610.2
315.068	590.4
315.461	596.6
315.854	618.6
316.247	602.4
316.64	585.2
317.033	581.4
317.405	596
317.798	589.4
318.192	599
318.585	576.8
318.979	603
319.372	586
319.766	581.6
320.16	594
320.553	600.4
320.947	601
321.341	588.8
321.735	587.2
322.129	578
322.523	606.6
322.917	584.6
323.311	593
323.705	587.8
324.099	596.8
324.494	601
324.888	596
325.282	587.2
325.677	596
326.071	597.8
326.466	591
326.861	591.6
327.255	597.6
327.65	596.8
328.045	603.6
328.44	593.4
328.835	589.6
329.23	583.2
329.625	605
330.02	586.2
330.415	598.8
330.81	591.4
331.206	590.2
331.601	582.2
331.996	595.8
332.37	604
332.766	579.6
333.161	605.4
333.557	572.4
333.953	588.4
334.348	846.4
334.744	595.4
335.14	576.6
335.536	590.6
335.932	599.4
336.328	586.2
336.724	590
337.12	583
337.516	586.8
337.913	588
338.309	603.8
338.705	591.2
339.102	600.4
339.498	587.4
339.895	598
340.291	583.2
340.688	602
341.085	587.4
341.481	586
341.878	584
342.275	599.6
342.672	581.4
343.069	591.6
343.466	573
343.842	598.2
344.239	578.6
344.636	578.8
345.033	586.6
345.431	583.4
345.828	588
346.225	581.8
346.623	617
347.02	590.6
347.418	593.2
347.816	601.8
348.213	587.4
348.611	600.6
349.009	583.2
349.407	594
349.805	576
350.203	586.2
350.601	596
350.999	589.2
351.397	645.2
351.795	582.6
352.193	596.6
352.57	594.4
352.969	590.2
353.367	578
353.766	565.4
354.164	580.2
354.563	592
354.961	592.6
355.36	582.6
355.759	585.4
356.158	578.6
356.557	576.6
356.956	582.6
357.355	576.4
357.754	591.4
358.153	593.8
358.552	609.6
358.951	582.6
359.35	599.2
359.75	584.8
360.149	581.2
360.527	567.8
360.926	575.8
361.326	593.2
361.726	585.2
362.125	576.2
362.525	588.2
362.925	590.2
363.325	576.8
363.724	592
364.124	576.6
364.524	573.8
364.924	581.2
365.324	599.6
365.725	581.8
366.125	584
366.525	576.2
366.904	574.4
367.304	570.8
367.705	588.8
368.105	595
368.506	583
368.906	579.6
369.307	579.4
369.708	587.2
370.108	570.2
370.509	593.6
370.91	575
371.311	586.6
371.712	591.6
372.113	584
372.514	571.6
372.894	579.8
373.295	584.4
373.696	594.2
374.097	590.8
374.499	599
374.9	587.2
375.301	585.2
375.703	587.6
376.105	576.6
376.506	589.8
376.908	592.6
377.309	584
377.711	579.6
378.113	572.4
378.493	583.4
378.895	575
379.297	585.6
379.699	577
380.102	583.4
380.504	581.8
380.906	573.2
381.308	603.2
381.71	576.4
382.113	594.6
382.515	578.2
382.918	581.8
383.299	579
383.701	584.2
384.104	580.6
384.507	566.2
384.909	575.2
385.312	570.8
385.715	571.6
386.118	583.2
386.521	566.6
386.924	574.2
387.327	576.6
387.709	576
388.112	568.4
388.515	579.4
388.918	582
389.322	592.6
389.725	580.2
390.129	595.8
390.532	580.6
390.936	573.6
391.339	573.4
391.743	582
392.125	577.6
392.529	591.8
392.933	589.4
393.337	579.4
393.74	573.6
394.144	579.2
394.548	573.8
394.953	578.4
395.357	584.2
395.761	575
396.144	575.2
396.548	577.6
396.952	579.6
397.357	582
397.761	582.2
398.166	573.8
398.57	582.6
398.975	571.6
399.379	573.2
399.763	620.6
400.168	584.6
400.572	579
400.977	573.4
401.382	590.8
401.787	582.6
402.192	592
402.597	592
403.002	565
403.386	597
403.791	593.4
404.197	576.4
404.602	579.6
405.007	578.8
405.413	578
405.818	572.6
406.224	578.6
406.608	574.4
407.014	572.8
407.42	596
407.825	574
408.231	590.2
408.637	582.2
409.043	593
409.449	572
409.834	579.2
410.24	582.4
410.646	593.4
411.052	589
411.458	586
411.865	579.2
412.271	591.2
412.677	584.2
413.062	590.2
413.469	575.6
413.875	608.4
414.282	597.6
414.689	580.4
415.095	587.2
415.502	575.8
415.888	577.2
416.294	574
416.701	618
417.108	573.2
417.515	596.8
417.923	577.6
418.33	600.4
418.715	587.6
419.123	580.4
419.53	582.8
419.937	588
420.345	589.8
420.752	579
421.16	597.2
421.546	581.8
421.953	586.6
422.361	570
422.769	580.2
423.177	584.2
423.585	604.2
423.992	594.4
424.379	586.8
424.787	584.6
425.195	595.4
425.603	585.4
426.011	597
426.419	585.2
426.806	587.2
427.214	587.4
427.623	590.4
428.031	599.6
428.44	590.2
428.848	593
429.235	593.2
429.644	585.4
430.053	577
430.461	591.8
430.87	608.6
431.279	595.8
431.666	579
432.075	577.2
432.484	580
432.893	578.6
433.302	603.4
433.711	612.6
434.099	583.8
434.508	577.8
434.918	571.6
435.327	585.4
435.737	585.6
436.125	582.2
436.534	592.8
436.944	576.8
437.353	585.8
437.763	599
438.173	573
438.561	591
438.971	565.8
439.381	577
439.791	588.4
440.201	564.4
440.589	576
440.999	586
441.409	585.4
441.819	574.6
442.23	588
442.619	589.2
443.029	586
443.439	582.6
443.85	591.4
444.26	594.8
444.649	585.4
445.06	586.2
445.471	576.2
445.881	578.8
446.292	600
446.682	592.8
447.092	563.4
447.503	618.6
447.914	582.8
448.325	577
448.715	580.2
449.126	579.4
449.537	582.4
449.948	580.8
450.338	582.2
450.75	583.8
451.161	583.6
451.572	587.8
451.984	573.2
452.374	571.2
452.786	576.2
453.197	582.4
453.609	591.8
453.999	570.8
454.411	572
454.823	589
455.235	585.2
455.647	571.2
456.037	582.2
456.449	571
456.862	580.6
457.274	577.2
457.665	574
458.077	578.2
458.489	595.2
458.902	578.8
459.293	579
459.705	576.4
460.118	574
460.53	582.2
460.921	577.4
461.334	580
461.747	579.8
462.16	586.6
462.551	585.4
462.964	575
463.377	566.6
463.79	577.6
464.182	590.2
464.595	575.2
465.008	573.4
465.421	580.8
465.813	572.2
466.226	576
466.64	572.4
467.053	615.2
467.445	583
467.859	590.2
468.272	574
468.686	586.8
469.078	577.6
469.492	564
469.906	579.6
470.298	580.6
470.712	572.6
471.126	605.4
471.54	568.8
471.933	579.2
472.347	575.8
472.761	577.8
473.175	570.4
473.568	572.2
473.982	571.6
474.397	571
474.79	572.8
475.204	579
475.619	574.8
476.033	578.8
476.426	568.6
476.841	576
477.256	591
477.649	563.2
478.064	560.8
478.479	572
478.872	562.8
479.287	566.2
479.702	569.2
480.118	575.8
480.511	578.4
480.927	572.6
481.342	565.6
481.736	571
482.151	563.2
482.566	581.8
482.96	576
483.376	573.4
483.792	575.2
484.186	574.6
484.602	566.2
485.017	573.2
485.412	575.4
485.827	577.6
486.243	565
486.638	584.4
487.054	579.6
487.47	583.6
487.865	574.4
488.281	574.2
488.697	573.6
489.092	573.8
489.508	565
489.925	573.2
490.32	566.2
490.736	577.6
491.153	580
491.548	575
491.964	580.4
492.381	563.6
492.776	581.4
493.193	573.4
493.61	577.4
494.006	573.4
494.422	580.8
494.84	565.8
495.235	580.8
495.652	572.8
496.069	572.8
496.465	563.4
496.883	570.4
497.3	594.6
497.696	566.2
498.113	577.6
498.509	568.2
498.927	566.2
499.344	568.2
499.741	562.4
500.158	582.6
500.576	583
500.973	580.4
501.39	563.4
501.787	566.8
502.205	574
502.623	568.4
503.02	572.8
503.438	564.4
503.856	570.4
504.253	574.8
504.671	575.8
505.068	567
505.486	565.8
505.905	587.4
506.302	569
506.72	582.2
507.118	561.8
507.536	565.8
507.955	567
508.352	571
508.771	575
509.169	581
509.587	566.6
510.006	567.8
510.404	568
510.823	564
511.221	570.4
511.64	567
512.038	588.2
512.457	575
512.877	570.2
513.275	570.6
513.694	571.8
514.092	571.4
514.512	569.2
514.91	575
515.33	568.6
515.749	577
516.148	578.2
516.568	572.6
516.966	569.4
517.386	570.8
517.785	570.6
518.205	568.4
518.603	567.8
519.024	561.4
519.444	570.8
519.843	581
520.263	575.8
520.662	573.8
521.082	576.2
521.481	569.2
521.902	567.6
522.301	577.8
522.722	571
523.121	563.8
523.542	571
523.963	572.8
524.362	570.8
524.783	573.6
525.183	572.8
525.604	574.8
526.003	569.6
526.425	571
526.824	573.6
527.246	581.6
527.646	573.4
528.067	572
528.467	572.4
528.888	572
529.289	569.6
529.71	572.6
530.11	578
530.532	567
530.932	566
531.354	565.8
531.755	594
532.176	578.8
532.577	563.8
532.999	567.2
533.4	561.8
533.822	570.8
534.223	578.2
534.645	570.8
535.046	576.6
535.468	570.6
535.869	580.4
536.292	572.6
536.693	593.2
537.115	576.4
537.516	569.4
537.939	572.6
538.34	591.6
538.742	582.8
539.165	572.2
539.566	570
539.989	562.8
540.391	565.4
540.814	567.4
541.216	574.2
541.639	573.2
542.041	577.8
542.464	566.8
542.866	573.4
543.268	568.4
543.691	573.6
544.093	575
544.517	585.4
544.919	563.6
545.343	589.8
545.745	567.8
546.147	576.4
546.571	565.4
546.974	571.4
547.398	575.8
547.8	578.6
548.224	565.4
548.627	554.6
549.03	579.4
549.454	559.4
549.857	560.2
550.281	568.4
550.684	571.4
551.087	579
551.512	571.2
551.915	566.8
552.34	572.6
552.743	558.2
553.146	570
553.571	570
553.975	580.4
554.399	561.6
554.803	610
555.207	561.8
555.632	566.6
556.036	577.8
556.461	560.4
556.865	577.8
557.268	567.4
557.694	568.2
558.098	569.6
558.502	571.8
558.927	567.4
559.332	570.4
559.736	567.6
560.162	571.6
560.566	565.4
560.992	570
561.396	571.4
561.801	557.6
562.227	565.8
562.631	565.4
563.036	568
563.462	567.2
563.867	565.2
564.272	565
564.698	574.4
565.103	559.4
565.508	580
565.935	563.4
566.34	568.4
566.745	583.2
567.172	564
567.577	588.2
567.982	583.4
568.409	576.6
568.815	567.4
569.22	566.8
569.626	572.4
570.053	556.2
570.459	574.4
570.865	576.2
571.292	577
571.698	569.8
572.104	562
572.531	564
572.937	570.8
573.343	564.4
573.75	558.6
574.177	567.8
574.583	567.4
574.99	563
575.396	566.4
575.824	563.6
576.231	576
576.637	566.2
577.065	587.6
577.472	569.6
577.879	562.8
578.286	585
578.714	559.2
579.121	560.6
579.528	573.6
579.935	573
580.364	562.8
580.771	551.2
581.178	562.4
581.585	571.2
582.014	571.2
582.421	570.2
582.829	561.2
583.236	576
583.644	558.8
584.073	562
584.481	578.2
584.889	559.6
585.296	574.4
585.726	560.8
586.134	564.6
586.542	564.8
586.95	576.2
587.358	555.4
587.787	568.4
588.196	575.2
588.604	559.4
589.012	562
589.421	568
589.851	567.2
590.259	568.6
590.668	575.2
591.076	606.6
591.485	564.4
591.894	564.8
592.324	581.2
592.733	575.2
593.142	558.6
593.551	560
593.96	595.2
594.369	561.8
594.8	564.2
595.209	569.4
595.618	559.2
596.028	561
596.437	562.2
596.847	563.4
597.256	568.6
597.687	566
598.097	568
598.507	566.6
598.917	573.4
599.327	573.2
599.736	569.6
600.146	572.8
600.556	561.2
600.988	577.2
601.398	565.4
601.808	573.6
602.219	559.8
602.629	578.6
603.039	564.6
603.45	589.4
603.86	567.8
604.271	580.6
604.703	577.2
605.114	569.2
605.525	570.6
605.935	575.4
606.346	587.2
606.757	566.2
607.168	563
607.579	568.2
607.99	582.4
608.402	570.8
608.813	573.8
609.224	571
609.636	564.8
610.047	570.6
610.48	573
610.892	570.8
611.303	580.6
611.715	565.8
612.127	570
612.539	573.2
612.95	572.2
613.362	563.8
613.774	563.6
614.186	574.2
614.599	570.2
615.011	575.2
615.423	570.4
615.835	573
616.248	565.2
616.66	573
617.073	564.4
617.485	571.2
617.898	586.4
618.311	574
618.723	576.8
619.136	595.4
619.549	585.4
619.962	585.6
620.375	576
620.788	574.2
621.201	572.8
621.614	579.2
622.028	568
622.441	575.8
622.854	583.4
623.268	568
623.681	578.4
624.095	577.6
624.509	580
624.922	575.2
625.336	561.6
625.728	578.8
626.142	581
626.556	593
626.97	574.4
627.384	572.8
627.799	564
628.213	579.6
628.627	566.8
629.041	570.8
629.456	567
629.87	567
630.285	576.6
630.699	576.8
631.093	566.6
631.507	576
631.922	578.4
632.337	584.6
632.752	568.6
633.167	575
633.582	571.6
633.997	562.2
634.412	567.8
634.806	569.2
635.221	569.6
635.637	575
636.052	568.6
636.468	571
636.883	590.8
637.299	565.6
637.715	556.8
638.109	572.2
638.525	567.6
638.941	579.2
639.357	578.4
639.773	587.2
640.189	567.6
640.584	571
641	566.4
641.416	556
641.832	562
642.249	565.8
642.665	574.8
643.06	581.4
643.477	574.4
643.894	564
644.31	568.6
644.727	572
645.123	566.2
645.54	570.8
645.957	572.2
646.374	575.4
646.77	574
647.187	595
647.604	563.4
648.021	562.8
648.439	564
648.835	562.4
649.252	570
649.67	567.8
650.088	557.8
650.484	571.2
650.902	573
651.32	575.4
651.738	567.4
652.134	567.4
652.552	579.6
652.971	575.2
653.389	574.6
653.786	584.6
654.204	577.6
654.622	558.8
655.019	569.8
655.438	569.2
655.857	574.8
656.275	569.8
656.673	570
657.091	571.8
657.51	561
657.908	571.2
658.327	576.6
658.746	555.8
659.144	567.6
659.563	581
659.982	569.4
660.38	557
660.8	561
661.219	566.6
661.617	578.4
662.037	568.8
662.457	574.2
662.855	558.2
663.275	588.8
663.695	564.4
664.094	569.4
664.514	569.4
664.934	558.2
665.333	572.6
665.753	560.8
666.152	556.2
666.572	562.8
666.993	581.2
667.392	555.8
667.812	568
668.212	560.2
668.632	575
669.053	569
669.453	575.6
669.874	561.4
670.273	560.2
670.694	560.2
671.116	574.2
671.515	568
671.937	556.6
672.337	556.6
672.758	559.8
673.158	570.2
673.58	555.4
673.98	567.2
674.402	567.4
674.824	563.4
675.224	557.4
675.646	556.2
676.047	556.8
676.469	560.6
676.869	566
677.292	565.6
677.693	564.8
678.115	562.4
678.516	568.4
678.939	565.2
679.34	564
679.762	573.2
680.164	573
680.586	555.4
680.988	568.4
681.411	589.2
681.812	562.4
682.236	557
682.637	556.4
683.061	557.4
683.462	566
683.864	568.6
684.288	567
684.69	551.4
685.114	566.6
685.516	567
685.94	557.8
686.342	574.4
686.766	562.4
687.168	558.8
687.571	572
687.995	563.2
688.398	549
688.822	564
689.225	576.8
689.628	579.2
690.052	564.8
690.456	565.4
690.88	567.8
691.284	549.6
691.687	569
692.112	554.4
692.515	564.2
692.919	569
693.344	566.2
693.747	555.6
694.173	566.6
694.577	575.4
694.98	569.6
695.406	558.4
695.81	563
696.214	564.2
696.64	564.8
697.044	563
697.448	574.6
697.874	562
698.279	562
698.684	554.6
699.11	556.8
699.514	557.2
699.919	556.4
700.324	558.4
700.75	560.2
701.156	566.8
701.561	576.4
701.987	565.2
702.393	572.6
702.798	574.4
703.203	564.8
703.63	564.8
704.036	558.2
704.442	568.2
704.847	562.8
705.274	558.6
705.68	568.6
706.086	568.2
706.492	553
706.92	561
707.326	559.4
707.732	558.2
708.139	558.2
708.545	553.2
708.973	560
709.38	558.4
709.786	557.8
710.193	576
710.6	566.6
711.028	552.6
711.435	559.8
711.842	554.8
712.249	560.4
712.656	563.4
713.064	572.2
713.492	559.2
713.9	561.4
714.307	567.2
714.715	566.4
715.123	570.8
715.53	568.2
715.938	569.4
716.367	560.8
716.775	564.4
717.184	561.6
717.592	556.8
718	576
718.408	584.4
718.816	594.2
719.225	567.8
719.633	562.4
720.042	558.2
720.472	563.4
720.881	580.4
721.29	566
721.699	556.6
722.108	558
722.517	563.4
722.926	564.2
723.335	566
723.744	568.6
724.154	561
724.563	563.6
724.973	564.6
725.382	563.4
725.792	558.6
726.202	558.2
726.612	575.4
727.022	563.4
727.432	555.6
779.813	556.2
780.223	594.6
780.634	550.6
781.044	557.8
781.454	561.2
781.865	571
782.276	557.4
782.686	566.2
783.097	556
783.508	558.2
783.919	560
784.33	571.4
784.741	568.6
785.152	564
785.563	548.6
785.974	556.2
786.386	573.4
786.776	565
787.188	557.4
787.599	554.4
788.011	571.6
788.423	555.6
788.835	553.2
789.247	551
789.659	554.2
790.071	555.8
790.483	591.6
790.874	556.6
791.286	559.2
791.699	551.2
792.111	554.2
792.524	564.4
792.937	558.2
793.349	553.8
793.741	552.4
794.154	555
794.567	572.6
794.98	554
795.393	560
795.785	572.8
796.198	557.6
796.612	561
797.026	558.4
797.439	542.2
797.831	563.6
798.245	554.6
798.659	560.8
799.073	557
799.487	561
799.88	558.8
800.294	566
800.708	565.4
801.123	566
801.516	573.8
801.93	557.2
802.345	554.2
802.76	559.6
803.153	570.2
803.568	572.6
803.983	573.2
804.377	573.8
804.792	549.8
805.207	549
805.601	553.8
806.016	585.2
806.432	545
806.826	580
807.242	569
807.658	556.8
808.052	556.6
808.468	555.6
808.884	546.8
809.279	557.4
809.695	576.2
810.111	576.8
810.506	560.6
810.922	570.8
811.339	557.4
811.734	558.2
812.151	550.6
812.546	557.4
812.963	561.2
813.38	558.2
813.776	552.4
814.193	579.4
814.589	555
815.006	557.6
815.402	560.6
815.82	547.6
816.237	563.4
816.633	561
817.051	554.6
817.448	557.4
817.866	546.8
818.262	573
818.68	553.8
819.077	550.2
819.495	555.8
819.892	590.2
820.311	552.8
820.708	554
821.127	553.6
821.524	571
821.943	557.8
822.34	574
822.759	556.4
823.157	556.8
823.576	569
823.974	567
824.393	571
824.791	554.4
825.189	541.2
825.609	559.8
826.007	552.4
826.427	545.8
826.826	558.2
827.246	569.2
827.644	544.2
828.043	566.6
828.463	554.4
828.862	558.8
829.261	561
829.682	550.2
830.081	564.4
830.502	558.2
830.901	566.2
831.301	575.8
831.722	548.6
832.121	563.6
832.521	559.2
832.943	558.6
833.342	564.2
833.742	551
834.164	556.2
834.564	554.4
834.965	557.8
835.386	560.2
835.787	547.8
836.188	555.6
836.588	555
837.01	559.2
837.411	556.4
837.812	560.8
838.213	568.8
838.636	559.4
839.037	622.4
839.438	559.4
839.84	563
840.263	569.8
840.664	564.6
841.066	565.6
841.468	557.6
841.891	556
842.293	567.6
842.695	556
843.098	559.4
843.5	552.2
843.902	555
844.326	562.4
844.729	551.4
845.131	575
845.534	550.4
845.937	565.4
846.34	565
846.764	552.6
847.167	552.2
847.571	555.2
847.974	555.4
848.377	550.6
848.781	594.4
849.184	572
849.588	552.4
849.992	552
850.396	556.6
850.821	571.4
851.225	556
851.63	559.2
852.034	568
852.438	558.6
852.843	628
853.247	550.4
853.652	552.2
854.057	567.8
854.462	554
854.867	572.2
855.272	584.2
855.677	566.2
856.082	550.6
856.487	551.2
856.893	564.4
857.298	557.2
857.704	553
858.11	559.8
858.516	565.2
858.922	557.4
859.328	562.8
859.734	561.2
860.14	559.6
860.525	559
860.931	546.6
861.338	552.8
861.745	556
862.151	563.6
862.558	562.4
862.965	549.2
863.372	553
863.779	559
864.186	578.6
864.572	554.4
864.98	568.8
865.387	584.2
865.795	555.8
866.203	567.4
866.61	547.4
867.018	563.2
867.405	568
867.813	551.6
868.221	556.8
868.63	551.2
869.038	566.4
869.425	587.2
869.834	562
870.243	552.8
870.652	551.4
871.039	555.6
871.448	555.4
871.857	562.6
872.266	558.4
872.654	556
873.064	553.6
873.473	563
873.883	547
874.271	555.8
874.681	565.4
875.091	541.4
875.48	561.6
875.89	568.8
876.3	552.6
876.689	545
877.1	555
877.51	558.4
877.9	580
878.31	558.8
878.721	584
879.111	559.2
879.522	560
879.933	546.6
880.323	547
880.734	550.6
881.125	555
881.536	552.8
881.948	552.6
882.338	553.6
882.75	556.2
883.141	551.4
883.553	552.8
883.944	581.8
884.356	561.8
884.769	551.2
885.16	556.4
885.573	553
885.964	551.2
886.377	553.8
886.768	545
887.181	554.8
887.573	545.6
887.987	557.2
888.378	569.8
888.792	558.8
889.184	596.6
889.598	552.6
889.99	559.8
890.383	556.8
890.797	551.6
891.19	563.2
891.604	551.2
891.997	556.6
892.411	551.6
892.805	546.6
893.198	547
893.613	552.8
894.006	551.2
894.421	548.6
894.815	554.4
895.209	551.2
895.624	591.6
896.018	570.4
896.412	555.6
896.828	555.4
897.222	557.2
897.617	555.2
898.033	570.8
898.427	568
898.822	553.8
899.239	554.2
899.634	542.4
900.029	568.2
900.424	552.4
900.841	546
901.236	564.4
901.632	562.6
902.027	603
902.445	563.2
902.841	559
903.237	551.8
903.633	569.6
904.05	564.4
904.447	562.2
904.843	555.8
905.24	552
905.636	551.4
906.033	556.4
906.451	560.8
906.848	546.6
907.246	552
907.643	558.4
908.04	559.6
908.438	569.6
908.835	571.6
909.254	556.4
909.652	561.6
910.05	553.4
910.448	547
910.846	555.2
911.244	550.6
911.643	557.4
912.041	558.4
912.44	570.4
912.839	550
913.237	553.8
913.636	546.6
914.035	551.4
914.434	549.6
914.834	566.8
915.233	562.4
915.633	547.8
916.032	544
916.432	549.6
916.832	563.6
917.232	545.4
917.632	544
918.032	552.4
918.432	553
918.833	555
919.233	542.6
919.634	541.6
920.035	558.6
920.436	554.4
920.837	559.4
921.238	548.8
921.639	560.6
922.019	550.6
922.42	560.2
922.822	559
923.224	559
923.625	558.4
924.027	557.2
924.429	573.6
924.81	551.4
925.212	555.6
925.615	561.2
926.017	554.2
926.42	562.2
926.801	552
927.204	560
927.607	553.6
928.01	559.4
928.413	558.6
928.795	544.4
929.199	556.4
929.602	550.8
930.006	559.2
930.388	554.4
930.792	556
931.196	551
931.579	578
931.983	551.4
932.388	599
932.771	552.4
933.176	547.8
933.58	565.6
933.964	563.4
934.369	553.2
934.774	563
935.158	554.6
935.563	555.4
935.947	557.4
936.353	555
936.759	544.2
937.143	559.8
937.549	559.6
937.934	563.8
938.34	574
938.746	548
939.131	544.2
939.538	549.6
939.923	553.4
940.33	552
940.716	559.8
941.123	560.8
941.508	563.6
941.916	562.2
942.302	560.4
942.709	551
943.096	553.8
943.503	551.8
943.89	553.4
944.298	550.6
944.685	578.2
945.072	556.2
945.48	560.4
945.867	551.2
946.276	551
946.663	576.6
947.051	560.4
947.46	562.8
947.848	560.6
948.257	552.4
948.645	558.2
949.033	549.2
949.443	547.6
949.831	586.6
950.22	554.4
950.63	568
951.018	578.6
951.407	554.8
951.796	545.8
952.207	563
952.596	567.2
952.985	557.2
953.375	586.8
953.786	560.6
954.176	538
954.566	559
954.956	549.8
955.367	555.2
955.758	567
956.148	550.2
956.539	567.4
956.929	547
957.341	548.8
957.732	552.4
958.123	561.2
958.515	547.8
958.906	560
959.297	548.8
959.689	554
960.102	551.2
960.494	558.8
960.886	554
961.278	550
961.67	576.8
962.062	591
962.455	551.2
962.847	553
963.24	549.4
963.633	553.6
964.026	545.2
964.419	559.4
964.812	553.2
965.206	544.8
965.599	558
965.993	553.2
966.386	547.2
966.78	562.8
967.174	561.8
967.569	548.6
967.963	550.6
968.357	544.8
968.752	550.2
969.146	546.6
969.541	540.8
969.936	548.8
970.331	548.6
970.705	560.6
971.1	548.2
971.496	552.2
971.892	547.8
972.287	552.4
972.683	548.2
973.079	553.8
973.454	565
973.85	559.8
974.247	556.8
974.643	567.8
975.04	556.6
975.415	552
975.812	549.4
976.209	552.6
976.607	545.4
976.982	558.8
977.38	571.6
977.778	551
978.175	548.4
978.552	548.4
978.95	552.2
979.348	561.6
979.725	582.2
980.123	546.4
980.522	550.6
980.899	549.4
981.298	547
981.697	548.8
982.075	549.6
982.474	547.6
982.852	548.6
983.251	560
983.651	552.4
984.029	563.4
984.429	559.4
984.808	548.2
985.208	546.2
985.609	546.6
985.987	538.6
986.388	543.8
986.768	555.2
987.168	548.4
987.548	562.4
987.949	556.2
988.329	557.8
988.731	539.2
989.111	557.6
989.491	552.6
989.893	547.4
990.273	550.4
990.676	547.6
991.057	538.4
991.459	555.4
991.84	547
992.221	536.8
992.624	562.8
993.006	554.4
993.388	549.4
993.791	561.2
994.173	554
994.576	577.6
994.959	549.8
995.341	549
995.724	557
996.128	552
996.511	556.8
996.894	557.8
997.298	555.4
997.681	557
998.065	558.6
998.448	550
998.854	564.6
999.237	548.6
999.621	559.2
1000.01	563
1000.39	553.4
1000.8	550.6
1001.18	555.2
1001.56	559.2
1001.95	557.6
1002.33	556.2
1002.72	551.8
1003.13	549.8
1003.51	553.4
1003.9	549.2
1004.28	560.6
1004.67	554.8
1005.06	549.4
1005.44	573.6
1005.83	543
1006.21	551.4
1006.6	548.6
1006.99	554.8
1007.37	553.8
1007.76	551
1060.12	547.8
1060.51	542.6
1060.89	556
1061.28	551.2
1061.67	553.8
1062.06	552.2
1062.45	550.2
1062.83	544
1063.22	560.8
1063.61	584.4
1064	555.8
1064.39	549.6
1064.78	545
1065.14	558.2
1065.53	558.2
1065.92	549.8
1066.31	547.2
1066.7	552.2
1067.09	559
1067.46	557
1067.85	550.2
1068.24	543.4
1068.63	555.6
1069.02	549.8
1069.39	549.6
1069.78	542.2
1070.17	552.6
1070.57	551.4
1070.93	549.2
1071.33	551.8
1071.72	553
1072.11	546.2
1072.48	552.8
1072.87	558.6
1073.26	555.2
1073.64	552.6
1074.03	545
1074.4	550.4
1074.79	545.8
1075.19	554
1075.56	545.2
1075.95	555.6
1076.34	546.8
1076.72	551.6
1077.11	553.8
1077.48	564.4
1077.88	551.4
1078.25	552
1078.64	557.2
1079.02	551.4
1079.41	561.2
1079.78	547
1080.18	540.4
1080.55	596.4
1080.95	547.2
1081.32	546.6
1081.72	557.4
1082.09	556.8
1082.49	540.6
1082.86	552.4
1083.24	544
1083.63	538
1084.01	547.4
1084.38	557.2
1084.78	545.6
1085.16	555.2
1085.55	561.2
1085.93	562.8
1086.31	540.4
1086.7	582.2
1087.08	548.2
1087.46	552.8
1087.83	541.6
1088.23	556.8
1088.61	549
1088.99	548
1089.36	547.2
1089.76	555.6
1090.14	555.6
1090.52	548.2
1090.9	548.2
1091.27	567.2
1091.67	566.8
1092.05	551.6
1092.43	546.2
1092.81	556.6
1093.19	556
1093.57	552.4
1093.95	552.8
1094.35	557.2
1094.73	557.2
1095.11	538.4
1095.49	544.6
1095.87	550.6
1096.25	558.2
1096.63	556
1097.01	552
1097.39	560
1097.77	550.6
1098.15	543.2
1098.53	540.4
1098.91	549
1099.29	554.2
1099.68	564.8
1100.06	566.6
1100.44	551.6
1100.82	555.8
1101.18	555.8
1101.56	554.6
1101.95	547.6
1102.33	549.6
1102.71	550.2
1103.1	547
1103.48	543.6
1103.86	546.8
1104.22	556.8
1104.61	555.2
1104.99	551.4
1105.38	541.8
1105.76	552.8
1106.12	551.4
1106.51	577.4
1106.89	548.4
1107.26	550
1107.64	554.8
1108.03	549.8
1108.41	544
1108.78	553
1109.16	543.8
1109.55	555.8
1109.91	537.4
1110.3	540.8
1110.69	558
1111.05	555.6
1111.44	547.8
1111.8	557
1112.19	555
1112.58	556
1112.94	555.2
1113.33	550.2
1113.7	545
1114.09	548.8
1114.45	546.6
1114.84	553
1115.21	558.6
1115.6	549.2
1115.96	561.6
1116.35	553.2
1116.72	547.8
1117.11	555
1117.48	541.8
1117.85	546.8
1118.24	557.6
1118.6	557.8
1118.99	545
1119.36	546.2
1119.73	549.8
1120.12	546.2
1120.49	545.4
1120.86	556
1121.25	554.4
1121.62	547
1121.99	555
1122.38	560.2
1122.76	550.6
1123.13	546
1123.5	549.6
1123.89	551.4
1124.26	539.2
1124.63	556.2
1125	548.2
1125.4	547.6
1125.77	542.4
1126.14	541.4
1126.51	551
1126.88	551
1127.26	547.6
1127.63	546.8
1128.02	540.8
1128.4	537.6
1128.77	543.4
1129.14	554.4
1129.52	556.2
1129.89	541
1130.26	545.8
1130.64	550.8
1131.01	541
