#lambda/nm	C1
208.295	555.8
208.67	486.6
209.045	452.6
209.419	449.4
209.794	600.2
210.169	583.8
210.544	685.6
210.919	599
211.295	590.2
211.67	597
212.045	597.2
212.421	588.8
212.796	626
213.172	587.8
213.547	587.8
213.923	592.4
214.299	590.4
214.675	594.2
215.051	595.8
215.427	597.4
215.803	604.2
216.179	601.6
216.555	587.4
216.932	597
217.308	594.8
217.684	595
218.061	604
218.438	599.2
218.814	591
219.191	594.6
219.568	596.4
219.945	590.8
220.322	596.2
220.699	602.2
221.076	600.4
221.453	594.8
221.83	595.4
222.208	583.2
222.585	590.6
222.962	593
223.34	588.8
223.717	591.4
224.095	585.4
224.473	587.4
224.851	583.4
225.229	586
225.607	607.2
225.985	585.8
226.363	595.8
226.741	599
227.119	598.4
227.497	605
227.876	590.2
228.254	597
228.633	597.4
229.011	596
229.39	600
229.769	593.2
230.148	601.2
230.527	611
230.905	591
231.284	595
231.664	594.2
232.043	605.8
232.422	598.8
232.801	584.4
233.181	603.8
233.56	590
233.94	596
234.319	584.8
234.699	585.2
235.079	623.2
235.458	627.4
235.838	606.2
236.218	593.4
236.598	583.2
236.978	579.6
237.358	593.4
237.738	591.4
238.119	600.2
238.499	584.4
238.88	595.8
239.26	604.6
239.641	588.4
240.021	588.2
240.402	596.4
240.783	589.2
241.163	585
241.544	597.6
241.925	592
242.306	604
242.687	592
243.069	595.6
243.45	606.2
243.831	598.6
244.212	587.6
244.594	625.4
244.975	599.4
245.357	587.8
245.739	588.2
246.12	593.8
246.502	601.8
246.884	587.8
247.266	583.8
247.648	600
248.03	608.6
248.412	595.4
248.794	595.4
249.176	589.2
249.559	594.4
249.941	588
250.323	588.4
250.706	584.2
251.089	594
251.471	586.2
251.854	590.4
252.237	591
252.62	598.4
253.002	588
253.385	589.2
253.769	599
254.152	590.8
254.535	598.4
254.918	589.2
255.301	591.2
255.685	584.4
256.068	591.4
256.452	611.4
256.835	606.4
257.219	588.4
257.603	606
257.986	591.2
258.37	599
258.754	588.2
259.138	598.6
259.522	599
259.906	588.8
260.29	597
260.675	592.8
261.059	604.6
261.443	589
261.828	598.2
262.212	600.2
262.597	587.6
262.981	592.6
263.366	593
263.751	599.8
264.136	590.8
264.521	589.8
264.906	586.6
265.291	600
265.676	587.4
266.061	594.8
266.446	605.2
266.831	593.4
267.217	612.6
267.602	595
267.987	597.4
268.373	584.6
268.759	601.6
269.144	593.2
269.53	589.2
269.916	592.2
270.302	587.6
270.688	607.2
271.074	595
271.46	604.8
271.846	616.2
272.232	595.4
272.618	586.8
273.004	592.2
273.391	603.2
273.777	604.8
274.164	597.6
274.55	603.2
274.937	602.4
275.324	592.6
275.71	600.6
276.097	600.4
276.484	588
276.871	597
277.258	597.8
277.645	584
278.032	593.8
278.419	603.2
278.807	598.8
279.194	585.8
279.581	588
279.969	594.6
280.356	592.6
280.744	598.4
281.131	613.8
281.519	604.6
281.907	590.8
282.295	592.2
282.682	600
283.07	599.2
283.458	599.8
283.846	608.8
284.235	601.6
284.623	600
285.011	589.2
285.399	597.6
285.788	599
286.176	587.6
286.565	598.4
286.953	588.6
287.342	594
287.731	587.4
288.119	584.4
288.508	588.8
288.897	591.8
289.286	579.6
289.675	606.6
290.064	600.2
290.453	590
290.821	594.4
291.21	608
291.599	583
291.989	595
292.378	594.6
292.768	608.2
293.157	603.2
293.547	596
293.936	585.6
294.326	597.4
294.716	601.4
295.106	586.6
295.496	594.4
295.886	600.8
296.276	591
296.666	590.8
297.056	585.6
297.446	579.2
297.836	604.2
298.227	588.2
298.617	594.2
299.008	604.8
299.398	589.2
299.789	588.4
300.179	596
300.57	607.8
300.961	592.6
301.352	587.4
301.742	601
302.133	590.6
302.524	587.6
302.915	590
303.307	576.6
303.698	599.8
304.089	596.2
304.48	588.4
304.872	592.4
305.263	589.8
305.655	587
306.046	598.4
306.438	592.4
306.829	590.6
307.221	608
307.613	592.4
308.005	597.2
308.397	609.4
308.789	607.4
309.181	612.8
309.573	610.2
309.965	601.8
310.357	594.8
310.749	601.2
311.142	590.4
311.534	594.6
311.926	600.2
312.319	596.6
312.711	588.4
313.104	606.4
313.497	588.2
313.889	630.4
314.282	608.8
314.675	610.4
315.068	600.2
315.461	599.8
315.854	611.4
316.247	597
316.64	593.6
317.033	592.4
317.405	598.2
317.798	597.6
318.192	598.2
318.585	589.6
318.979	592.2
319.372	591
319.766	590.8
320.16	594.6
320.553	613.4
320.947	611
321.341	592.2
321.735	593.8
322.129	585.8
322.523	614.4
322.917	595.2
323.311	610.8
323.705	591.8
324.099	600.6
324.494	605.2
324.888	608.6
325.282	597.8
325.677	605.2
326.071	600.6
326.466	607.4
326.861	599.6
327.255	600.2
327.65	610.4
328.045	609.4
328.44	603
328.835	594.2
329.23	595.6
329.625	615
330.02	578.4
330.415	613
330.81	596.6
331.206	593.2
331.601	596.6
331.996	600.8
332.37	613.6
332.766	583.8
333.161	610
333.557	592
333.953	591.8
334.348	835
334.744	594
335.14	584.4
335.536	590.6
335.932	604.8
336.328	595.6
336.724	596.2
337.12	595.8
337.516	600.4
337.913	596
338.309	605.6
338.705	591.6
339.102	601.4
339.498	592.8
339.895	608
340.291	594
340.688	597.6
341.085	590.4
341.481	582.6
341.878	594.6
342.275	602
342.672	585.6
343.069	591.8
343.466	573
343.842	596
344.239	583
344.636	586.2
345.033	579.4
345.431	585
345.828	591.8
346.225	584.8
346.623	621.8
347.02	585.4
347.418	594.8
347.816	598.4
348.213	586.8
348.611	596
349.009	590.2
349.407	597
349.805	574.4
350.203	578.6
350.601	602.4
350.999	585.2
351.397	647.8
351.795	584.6
352.193	593.8
352.57	592.6
352.969	603
353.367	579.2
353.766	580.8
354.164	590.6
354.563	600.8
354.961	591.8
355.36	592
355.759	592
356.158	575.2
356.557	589.4
356.956	585.8
357.355	583.2
357.754	590.6
358.153	597.2
358.552	606.8
358.951	589.4
359.35	593.6
359.75	589
360.149	584.2
360.527	576
360.926	588
361.326	590
361.726	588
362.125	580.6
362.525	599.2
362.925	589.8
363.325	586
363.724	587.6
364.124	586.6
364.524	580
364.924	595
365.324	595.2
365.725	578.8
366.125	594
366.525	593.8
366.904	581.2
367.304	563.6
367.705	605
368.105	600
368.506	591.4
368.906	587.4
369.307	587.2
369.708	583.4
370.108	580
370.509	594.6
370.91	582.8
371.311	589.4
371.712	589.4
372.113	580.6
372.514	573.8
372.894	588.4
373.295	577.8
373.696	597.6
374.097	597
374.499	603
374.9	590.4
375.301	585.6
375.703	583.4
376.105	579.8
376.506	593.8
376.908	586.4
377.309	584
377.711	591.4
378.113	580.2
378.493	591.6
378.895	589.4
379.297	591
379.699	584
380.102	595.6
380.504	582
380.906	582.6
381.308	607.4
381.71	593.6
382.113	596.4
382.515	591
382.918	584
383.299	595.8
383.701	593.4
384.104	585.4
384.507	567.6
384.909	585.4
385.312	581
385.715	574.4
386.118	587
386.521	578.6
386.924	584.6
387.327	585.6
387.709	569.6
388.112	573.4
388.515	581.4
388.918	586
389.322	585
389.725	579
390.129	601.6
390.532	591.8
390.936	580
391.339	576.2
391.743	583
392.125	579.4
392.529	593.6
392.933	591.2
393.337	587.4
393.74	582.8
394.144	589.6
394.548	585.8
394.953	578.4
395.357	590.4
395.761	584.4
396.144	581.2
396.548	574.4
396.952	587
397.357	583.6
397.761	580.4
398.166	579
398.57	584.2
398.975	572
399.379	588.8
399.763	628.6
400.168	590.2
400.572	590.4
400.977	585.4
401.382	603.6
401.787	592
402.192	597.6
402.597	596.2
403.002	584.2
403.386	600.2
403.791	600.6
404.197	580
404.602	581
405.007	577.6
405.413	580.6
405.818	581
406.224	578.4
406.608	587.2
407.014	575.4
407.42	602.2
407.825	573.6
408.231	595
408.637	586.2
409.043	598.6
409.449	588.4
409.834	587
410.24	584
410.646	595.6
411.052	599.8
411.458	595.2
411.865	595
412.271	594.6
412.677	588.6
413.062	586.8
413.469	581.4
413.875	607.4
414.282	598.8
414.689	592.2
415.095	593.6
415.502	581.8
415.888	592.2
416.294	577.2
416.701	623.6
417.108	588
417.515	589.4
417.923	586.2
418.33	597.2
418.715	596
419.123	569.8
419.53	588.4
419.937	583.6
420.345	592.8
420.752	584.6
421.16	605.4
421.546	584.8
421.953	589.4
422.361	577.2
422.769	580.2
423.177	588.8
423.585	611
423.992	612.2
424.379	611.6
424.787	598
425.195	607
425.603	585.4
426.011	591.8
426.419	599.6
426.806	585.8
427.214	585.4
427.623	597.8
428.031	595.8
428.44	587.8
428.848	605.2
429.235	598.8
429.644	595.8
430.053	591
430.461	607.8
430.87	613
431.279	589.6
431.666	587
432.075	595.2
432.484	592.8
432.893	587
433.302	598.6
433.711	620.8
434.099	597
434.508	581.4
434.918	582.8
435.327	601.8
435.737	595.4
436.125	585.4
436.534	590.8
436.944	589.6
437.353	584.4
437.763	602
438.173	583.4
438.561	603.6
438.971	574
439.381	582.4
439.791	587.6
440.201	572
440.589	581.4
440.999	593.2
441.409	585
441.819	572.4
442.23	584
442.619	591.6
443.029	587.6
443.439	586.4
443.85	588
444.26	601.6
444.649	587.4
445.06	583
445.471	585.8
445.881	587.6
446.292	596
446.682	604.6
447.092	574
447.503	630.6
447.914	577.2
448.325	584
448.715	583.6
449.126	580.2
449.537	587
449.948	590.2
450.338	586.8
450.75	588.2
451.161	600.2
451.572	591.6
451.984	584.2
452.374	564
452.786	584
453.197	585.6
453.609	590.2
453.999	569.8
454.411	580.6
454.823	596.6
455.235	589
455.647	580
456.037	589.6
456.449	577.8
456.862	595
457.274	585
457.665	573.4
458.077	590.4
458.489	612.4
458.902	586.2
459.293	590
459.705	587.8
460.118	581.2
460.53	583.8
460.921	582.8
461.334	588.8
461.747	597.2
462.16	593
462.551	600.8
462.964	586.2
463.377	574.6
463.79	583.4
464.182	591.4
464.595	575
465.008	589.2
465.421	582.6
465.813	576.2
466.226	585.2
466.64	586.4
467.053	623.6
467.445	591
467.859	592.4
468.272	588.4
468.686	590.8
469.078	582
469.492	571.4
469.906	583.6
470.298	590.6
470.712	571.6
471.126	624
471.54	572.2
471.933	576.8
472.347	584.4
472.761	579
473.175	566.8
473.568	575.6
473.982	575
474.397	582
474.79	583.4
475.204	590.8
475.619	576
476.033	580.4
476.426	582
476.841	581
477.256	592.8
477.649	574.6
478.064	575.4
478.479	582.4
478.872	573.8
479.287	566.8
479.702	572.4
480.118	585
480.511	580.2
480.927	577.4
481.342	571.6
481.736	579.6
482.151	575.6
482.566	588.2
482.96	576.2
483.376	590.8
483.792	576.2
484.186	581.6
484.602	573.8
485.017	576
485.412	576.4
485.827	592.8
486.243	575.2
486.638	595.2
487.054	587
487.47	589.6
487.865	577.4
488.281	583.4
488.697	571.4
489.092	579.8
489.508	575
489.925	593.4
490.32	571.2
490.736	583
491.153	575.8
491.548	579.8
491.964	588.2
492.381	571.6
492.776	583.4
493.193	576.6
493.61	584.8
494.006	586.6
494.422	580.2
494.84	575.6
495.235	586.6
495.652	583.8
496.069	578.2
496.465	572.2
496.883	572.4
497.3	603.4
497.696	575.4
498.113	584.4
498.509	569.4
498.927	566.6
499.344	569.6
499.741	576.8
500.158	582.4
500.576	581
500.973	585.2
501.39	580.4
501.787	571.2
502.205	578.2
502.623	569.8
503.02	568.2
503.438	570.8
503.856	572.4
504.253	575.8
504.671	570.8
505.068	578.6
505.486	573.8
505.905	593.8
506.302	582.4
506.72	582.4
507.118	574.8
507.536	574.8
507.955	573.4
508.352	585.2
508.771	577.8
509.169	582.4
509.587	569.8
510.006	573.2
510.404	566.4
510.823	568.2
511.221	568.8
511.64	570.2
512.038	592
512.457	578
512.877	574.8
513.275	569.8
513.694	578.6
514.092	577.4
514.512	576.2
514.91	582
515.33	585.4
515.749	580.2
516.148	578.8
516.568	576.8
516.966	576.2
517.386	573.6
517.785	582
518.205	568
518.603	574.6
519.024	564.2
519.444	582.2
519.843	584.4
520.263	587.2
520.662	584.4
521.082	576.8
521.481	575.4
521.902	579
522.301	581.6
522.722	585.2
523.121	571.2
523.542	580.4
523.963	578.6
524.362	576.8
524.783	576
525.183	577.8
525.604	576.6
526.003	575.4
526.425	571.2
526.824	589.2
527.246	582.2
527.646	587.2
528.067	581.4
528.467	579
528.888	590.8
529.289	574.6
529.71	581.2
530.11	571.6
530.532	577.4
530.932	570.8
531.354	564.8
531.755	601.4
532.176	580.2
532.577	569.8
532.999	576.8
533.4	575.8
533.822	584
534.223	579.6
534.645	570.2
535.046	571.8
535.468	571.4
535.869	590
536.292	568
536.693	595.4
537.115	575.8
537.516	569.6
537.939	576.4
538.34	588.8
538.742	577.6
539.165	578.8
539.566	577.2
539.989	563.4
540.391	568.4
540.814	569.8
541.216	572.8
541.639	572.8
542.041	580.4
542.464	570.8
542.866	575.2
543.268	564
543.691	581
544.093	581.8
544.517	590
544.919	573.4
545.343	590.8
545.745	563.4
546.147	580.2
546.571	565.8
546.974	562.8
547.398	575.2
547.8	585.6
548.224	569.8
548.627	575.2
549.03	569.6
549.454	570
549.857	564.2
550.281	567.8
550.684	571
551.087	578.8
551.512	579.2
551.915	579.6
552.34	572.6
552.743	575.8
553.146	577.2
553.571	578.8
553.975	587.4
554.399	566.4
554.803	609
555.207	574.6
555.632	572.8
556.036	579
556.461	564.8
556.865	572.2
557.268	578.4
557.694	572.4
558.098	580
558.502	580.2
558.927	575
559.332	578.2
559.736	579
560.162	577
560.566	572.8
560.992	581
561.396	576.2
561.801	573
562.227	571
562.631	575.2
563.036	576
563.462	579.2
563.867	571.6
564.272	562.4
564.698	577
565.103	566
565.508	595.6
565.935	574.6
566.34	579.2
566.745	593.2
567.172	566.2
567.577	593.6
567.982	587.2
568.409	588.2
568.815	559.6
569.22	573.2
569.626	574.4
570.053	566.6
570.459	573.8
570.865	585.6
571.292	576.2
571.698	579
572.104	562.6
572.531	576
572.937	582
573.343	574.8
573.75	577
574.177	578
574.583	579.6
574.99	569
575.396	576.2
575.824	569.8
576.231	580.8
576.637	571.6
577.065	593.6
577.472	570.6
577.879	570.6
578.286	589.6
578.714	564.4
579.121	568.4
579.528	573.8
579.935	575.8
580.364	569
580.771	556.2
581.178	569.2
581.585	574.2
582.014	573.8
582.421	573.2
582.829	569.4
583.236	585
583.644	568.4
584.073	567.8
584.481	576.4
584.889	568.2
585.296	580.8
585.726	565.6
586.134	569.8
586.542	570.8
586.95	588.2
587.358	564.6
587.787	572
588.196	579.8
588.604	570.6
589.012	570.8
589.421	559
589.851	564.6
590.259	574.8
590.668	568
591.076	603.2
591.485	567
591.894	573.4
592.324	582.6
592.733	581.4
593.142	565.4
593.551	579.2
593.96	605
594.369	567.4
594.8	567.2
595.209	568.2
595.618	558.8
596.028	566.2
596.437	564
596.847	574.2
597.256	578.2
597.687	574
598.097	569.4
598.507	566.8
598.917	577.8
599.327	579.8
599.736	567.4
600.146	576
600.556	570.6
600.988	585.8
601.398	569.4
601.808	573
602.219	555.8
602.629	575.4
603.039	575.4
603.45	604
603.86	572.6
604.271	589.6
604.703	576.6
605.114	574.2
605.525	575
605.935	580.4
606.346	592
606.757	574.8
607.168	577.4
607.579	563.8
607.99	580
608.402	578.4
608.813	578.2
609.224	569.4
609.636	564.8
610.047	574.6
610.48	566.8
610.892	588.8
611.303	590.6
611.715	576
612.127	575.6
612.539	566.4
612.95	570
613.362	563.4
613.774	574.8
614.186	572
614.599	568.2
615.011	585.2
615.423	569
615.835	575.2
616.248	564
616.66	582.2
617.073	566.4
617.485	572.6
617.898	582.4
618.311	576
618.723	573
619.136	599.8
619.549	588.6
619.962	597.2
620.375	571.2
620.788	586.4
621.201	566.2
621.614	586.4
622.028	572.6
622.441	577.2
622.854	589.6
623.268	570
623.681	588.4
624.095	577.8
624.509	579
624.922	586.6
625.336	565.4
625.728	580.4
626.142	590.4
626.556	591.8
626.97	578.2
627.384	578
627.799	576.6
628.213	596.6
628.627	568.6
629.041	572.8
629.456	578.8
629.87	573.8
630.285	579
630.699	581
631.093	574
631.507	583.4
631.922	584.4
632.337	587.8
632.752	572.8
633.167	576
633.582	569
633.997	559.2
634.412	556
634.806	578.4
635.221	567.2
635.637	590.2
636.052	563.2
636.468	568.4
636.883	590.2
637.299	572
637.715	560
638.109	581.2
638.525	566.6
638.941	584.2
639.357	572.6
639.773	580.2
640.189	569.4
640.584	580
641	572.4
641.416	564.2
641.832	570.6
642.249	571.2
642.665	568.8
643.06	580.8
643.477	579
643.894	563.6
644.31	569
644.727	573.8
645.123	576.6
645.54	566.6
645.957	575.6
646.374	585.2
646.77	577.8
647.187	606
647.604	576.2
648.021	558.4
648.439	572.6
648.835	567.8
649.252	577
649.67	570.2
650.088	576.8
650.484	573
650.902	578.2
651.32	579.4
651.738	576.8
652.134	574.6
652.552	590.4
652.971	578.6
653.389	574.6
653.786	583.2
654.204	587.8
654.622	564.6
655.019	576.6
655.438	570
655.857	580
656.275	574.2
656.673	563.8
657.091	577.4
657.51	566.4
657.908	577.8
658.327	581.8
658.746	568.2
659.144	569.8
659.563	578.2
659.982	577.2
660.38	564.2
660.8	568.8
661.219	577.4
661.617	566.8
662.037	570.2
662.457	575.6
662.855	558.8
663.275	593.4
663.695	569.4
664.094	568.6
664.514	573.6
664.934	570
665.333	580.8
665.753	565.8
666.152	568.2
666.572	565
666.993	571.6
667.392	574.8
667.812	572
668.212	567.2
668.632	578.4
669.053	572.4
669.453	577.2
669.874	575.4
670.273	573
670.694	571
671.116	577
671.515	580.2
671.937	570.4
672.337	568.2
672.758	565.4
673.158	572.2
673.58	561
673.98	572.8
674.402	581
674.824	573.6
675.224	565.2
675.646	559.2
676.047	569
676.469	576
676.869	574.8
677.292	564.2
677.693	564.4
678.115	565.4
678.516	575.2
678.939	572.6
679.34	577.2
679.762	576.8
680.164	572.2
680.586	565
680.988	572.8
681.411	589.6
681.812	573.6
682.236	551.4
682.637	558.6
683.061	569.8
683.462	568.6
683.864	558.4
684.288	570.8
684.69	558.4
685.114	575.2
685.516	571.2
685.94	565
686.342	579.4
686.766	561.6
687.168	555.8
687.571	578.8
687.995	569.2
688.398	556.4
688.822	566.6
689.225	581
689.628	589
690.052	564.8
690.456	569.8
690.88	571.2
691.284	562.8
691.687	565.8
692.112	563.4
692.515	561.2
692.919	565.4
693.344	572
693.747	561.4
694.173	566
694.577	574.4
694.98	563.6
695.406	570.2
695.81	564.6
696.214	570.8
696.64	566.6
697.044	573.6
697.448	570
697.874	559.6
698.279	564.6
698.684	554.4
699.11	561.8
699.514	564.4
699.919	566
700.324	568.4
700.75	562.6
701.156	565.6
701.561	575
701.987	571.6
702.393	579.2
702.798	575.2
703.203	567.2
703.63	565.4
704.036	566.6
704.442	567
704.847	564.8
705.274	569.8
705.68	584
706.086	569
706.492	561.2
706.92	566
707.326	580.8
707.732	566.4
708.139	567.4
708.545	563.8
708.973	562.8
709.38	566.6
709.786	564
710.193	579.2
710.6	567.8
711.028	563.4
711.435	566.2
711.842	561
712.249	561.8
712.656	570.6
713.064	569.4
713.492	561.2
713.9	563.6
714.307	568.8
714.715	561.8
715.123	562.8
715.53	572.6
715.938	580
716.367	573.2
716.775	568.6
717.184	547.6
717.592	568.8
718	573.4
718.408	595
718.816	602.6
719.225	573.6
719.633	574.2
720.042	558.4
720.472	565.8
720.881	581.8
721.29	570.2
721.699	555.6
722.108	561.2
722.517	574.2
722.926	563.6
723.335	573.2
723.744	569
724.154	567.4
724.563	572.8
724.973	570
725.382	564.2
725.792	562.4
726.202	558.8
726.612	579.8
727.022	564.2
727.432	561.4
779.813	561.6
780.223	613
780.634	560.2
781.044	562.2
781.454	563.2
781.865	570.4
782.276	554.4
782.686	582.4
783.097	562.2
783.508	562.6
783.919	564.2
784.33	573.8
784.741	564.6
785.152	561.2
785.563	553.6
785.974	561.2
786.386	574.6
786.776	561.4
787.188	560.2
787.599	560.8
788.011	567.6
788.423	563.2
788.835	561.2
789.247	555.4
789.659	560.2
790.071	556.8
790.483	604.6
790.874	557
791.286	574.8
791.699	556
792.111	569.2
792.524	569
792.937	559.8
793.349	559.2
793.741	561.8
794.154	567
794.567	576.4
794.98	560.6
795.393	558
795.785	575.6
796.198	559.4
796.612	565.6
797.026	559.4
797.439	543.2
797.831	561
798.245	555
798.659	563.8
799.073	562.4
799.487	556.8
799.88	560.6
800.294	566.8
800.708	565.2
801.123	574.8
801.516	581.8
801.93	560
802.345	552.6
802.76	566.6
803.153	578
803.568	578.2
803.983	567.6
804.377	566
804.792	550
805.207	550.8
805.601	557.2
806.016	595.4
806.432	554.6
806.826	593
807.242	576.6
807.658	564.6
808.052	563.4
808.468	560.2
808.884	556.8
809.279	560.6
809.695	570.2
810.111	580.6
810.506	564.4
810.922	578.6
811.339	560.2
811.734	567
812.151	552.8
812.546	562
812.963	562
813.38	563.8
813.776	562.8
814.193	586.6
814.589	564.6
815.006	562.8
815.402	568.8
815.82	558
816.237	557.4
816.633	568.6
817.051	553.4
817.448	569
817.866	558.6
818.262	584.4
818.68	564
819.077	562.6
819.495	564.2
819.892	597.4
820.311	558.4
820.708	563.2
821.127	561.4
821.524	568.4
821.943	573.4
822.34	588.6
822.759	566.8
823.157	561.2
823.576	571.4
823.974	578.8
824.393	587
824.791	561.8
825.189	559.8
825.609	559.6
826.007	568
826.427	553
826.826	554
827.246	571.6
827.644	548
828.043	570.6
828.463	563
828.862	566.2
829.261	564.2
829.682	558.4
830.081	566.8
830.502	565
830.901	562.8
831.301	575.8
831.722	558.6
832.121	561
832.521	561.2
832.943	568
833.342	568.8
833.742	557
834.164	557
834.564	554.2
834.965	560.6
835.386	563.4
835.787	560.2
836.188	563.8
836.588	561.2
837.01	567.8
837.411	559
837.812	568.4
838.213	564.8
838.636	557.2
839.037	619
839.438	564
839.84	562.6
840.263	573.2
840.664	564
841.066	566.6
841.468	562
841.891	561.2
842.293	573.8
842.695	566.6
843.098	576.4
843.5	560
843.902	566.2
844.326	571.2
844.729	562.4
845.131	575.2
845.534	564.6
845.937	578.6
846.34	582.4
846.764	558.6
847.167	564
847.571	554.8
847.974	563.2
848.377	562.2
848.781	603.8
849.184	579.4
849.588	563
849.992	564.2
850.396	567.2
850.821	578.2
851.225	568
851.63	562.8
852.034	571
852.438	565
852.843	629.8
853.247	553.4
853.652	558.4
854.057	578.8
854.462	563.6
854.867	565.8
855.272	590.2
855.677	569.2
856.082	555
856.487	558.4
856.893	560.6
857.298	568.2
857.704	566.4
858.11	568
858.516	575.6
858.922	568.2
859.328	572.2
859.734	558.4
860.14	560.6
860.525	569.8
860.931	559
861.338	559.8
861.745	570.6
862.151	572.4
862.558	577.4
862.965	562.8
863.372	567
863.779	553
864.186	577
864.572	562.8
864.98	576.4
865.387	591.2
865.795	564
866.203	564.6
866.61	566
867.018	572.4
867.405	575.6
867.813	560.6
868.221	555.4
868.63	556.2
869.038	566.8
869.425	599
869.834	565.6
870.243	559.4
870.652	564.2
871.039	559.2
871.448	560.2
871.857	572.8
872.266	565
872.654	563.2
873.064	554.4
873.473	567.8
873.883	553
874.271	551.8
874.681	573.6
875.091	549.6
875.48	569.8
875.89	577.2
876.3	557.6
876.689	548.8
877.1	559.4
877.51	553
877.9	574.4
878.31	556.2
878.721	579.8
879.111	555.6
879.522	556.4
879.933	541.2
880.323	547.2
880.734	557.2
881.125	564.6
881.536	556.6
881.948	560
882.338	556.8
882.75	569
883.141	558.2
883.553	559.6
883.944	582
884.356	574.2
884.769	557.8
885.16	565
885.573	560
885.964	558.8
886.377	556.6
886.768	558
887.181	552.8
887.573	556.4
887.987	565.2
888.378	573.6
888.792	571
889.184	595.2
889.598	554.6
889.99	560.4
890.383	558.8
890.797	553.8
891.19	565
891.604	565.6
891.997	555.2
892.411	555.6
892.805	554
893.198	559.6
893.613	550.2
894.006	559.8
894.421	554.2
894.815	559.4
895.209	555.2
895.624	603.8
896.018	576.8
896.412	554.2
896.828	567.8
897.222	564.8
897.617	559.8
898.033	573.4
898.427	557.6
898.822	567
899.239	556.6
899.634	547.4
900.029	573.2
900.424	556
900.841	556.6
901.236	566.6
901.632	565.6
902.027	603.2
902.445	561.6
902.841	559.8
903.237	559.4
903.633	567.6
904.05	565
904.447	561.4
904.843	569
905.24	567.6
905.636	544.4
906.033	557.2
906.451	566.4
906.848	553.6
907.246	558.4
907.643	552.8
908.04	563.4
908.438	572.4
908.835	571
909.254	558.4
909.652	561.4
910.05	566.2
910.448	560.6
910.846	569.4
911.244	561
911.643	564
912.041	562.8
912.44	575
912.839	555.8
913.237	560.8
913.636	553.8
914.035	567.8
914.434	554.2
914.834	570.4
915.233	570.2
915.633	561.8
916.032	561
916.432	558
916.832	575
917.232	559.6
917.632	554.8
918.032	563.8
918.432	559.8
918.833	559.6
919.233	559.8
919.634	556.4
920.035	556.8
920.436	553.8
920.837	565.4
921.238	555
921.639	561.8
922.019	562.8
922.42	562.4
922.822	566.8
923.224	558.8
923.625	558.6
924.027	556.2
924.429	579.6
924.81	555.2
925.212	558.8
925.615	566.8
926.017	553.6
926.42	577.4
926.801	560.8
927.204	564.4
927.607	566.8
928.01	574
928.413	567.4
928.795	548.6
929.199	554.6
929.602	559.6
930.006	558.6
930.388	550
930.792	563.4
931.196	558.4
931.579	585.4
931.983	550.4
932.388	605.6
932.771	559
933.176	553.4
933.58	562.8
933.964	557
934.369	545.4
934.774	555.6
935.158	552.8
935.563	566
935.947	558.6
936.353	560.6
936.759	558.6
937.143	565.8
937.549	562.4
937.934	566.2
938.34	568
938.746	554
939.131	555.2
939.538	554.6
939.923	564
940.33	557
940.716	565.2
941.123	566.4
941.508	565.8
941.916	572.8
942.302	559.8
942.709	552.4
943.096	551.6
943.503	569.4
943.89	564
944.298	554.2
944.685	585.4
945.072	557.2
945.48	568.4
945.867	556.2
946.276	552.6
946.663	579
947.051	575.2
947.46	575.4
947.848	561
948.257	557.8
948.645	564.6
949.033	566.2
949.443	550
949.831	594
950.22	553
950.63	554.8
951.018	584.2
951.407	562.4
951.796	550.8
952.207	566.4
952.596	564
952.985	558.6
953.375	594.2
953.786	566.2
954.176	549.4
954.566	562.6
954.956	548.4
955.367	561.2
955.758	579.8
956.148	558.4
956.539	578
956.929	548.2
957.341	550.4
957.732	559
958.123	566
958.515	556.4
958.906	565.4
959.297	561.4
959.689	561
960.102	554.2
960.494	563
960.886	555
961.278	559.4
961.67	579
962.062	586.8
962.455	558
962.847	546.8
963.24	555.6
963.633	564.4
964.026	550.2
964.419	563
964.812	569.2
965.206	561.8
965.599	568.2
965.993	564.2
966.386	562.6
966.78	563
967.174	557.2
967.569	554
967.963	550.4
968.357	552.2
968.752	553.8
969.146	554
969.541	553.4
969.936	548.4
970.331	560
970.705	558.8
971.1	556.8
971.496	559
971.892	554.2
972.287	560.4
972.683	559
973.079	557.6
973.454	560.4
973.85	553.8
974.247	561.2
974.643	582.2
975.04	561
975.415	559
975.812	551
976.209	565
976.607	542.2
976.982	564.4
977.38	572.8
977.778	562
978.175	558
978.552	556.2
978.95	562.2
979.348	565.4
979.725	604.6
980.123	552.8
980.522	555
980.899	559
981.298	552.2
981.697	564.6
982.075	560.6
982.474	551.6
982.852	568
983.251	563.2
983.651	555.4
984.029	563.4
984.429	560.2
984.808	539.8
985.208	563.2
985.609	545.2
985.987	553.2
986.388	556
986.768	561.8
987.168	558.4
987.548	559
987.949	570.4
988.329	575.2
988.731	550.6
989.111	566.4
989.491	560
989.893	560
990.273	568.4
990.676	555
991.057	549.2
991.459	557
991.84	549
992.221	551.4
992.624	572.6
993.006	563
993.388	554.8
993.791	561.2
994.173	560
994.576	587.2
994.959	545.4
995.341	549
995.724	557.2
996.128	555.8
996.511	563.4
996.894	554.6
997.298	553.2
997.681	558.8
998.065	557.8
998.448	557.8
998.854	569.6
999.237	550.4
999.621	568.6
1000.01	568.2
1000.39	560.4
1000.8	553.2
1001.18	562.6
1001.56	561.8
1001.95	569.2
1002.33	559
1002.72	553.6
1003.13	558
1003.51	558.8
1003.9	558.2
1004.28	569.6
1004.67	555.2
1005.06	554.6
1005.44	584.6
1005.83	554
1006.21	554.2
1006.6	559.2
1006.99	563.4
1007.37	569
1007.76	560.4
1060.12	552.6
1060.51	548
1060.89	564.2
1061.28	565.4
1061.67	565.6
1062.06	563.4
1062.45	563.2
1062.83	556.6
1063.22	560.4
1063.61	600.2
1064	562.8
1064.39	562.6
1064.78	563
1065.14	569.8
1065.53	554.6
1065.92	559.2
1066.31	551
1066.7	571.2
1067.09	575
1067.46	569.8
1067.85	563.2
1068.24	557.2
1068.63	557.6
1069.02	564
1069.39	562.8
1069.78	552.6
1070.17	554.2
1070.57	548.2
1070.93	560.8
1071.33	546
1071.72	555.6
1072.11	546
1072.48	560
1072.87	552.8
1073.26	549.2
1073.64	554.8
1074.03	546.2
1074.4	551.8
1074.79	554.8
1075.19	550.8
1075.56	555.2
1075.95	552.2
1076.34	558.8
1076.72	554.4
1077.11	561
1077.48	567
1077.88	558
1078.25	558.2
1078.64	561.2
1079.02	555.4
1079.41	560.6
1079.78	555.6
1080.18	548.6
1080.55	608.4
1080.95	555
1081.32	558.6
1081.72	557.2
1082.09	555
1082.49	546.8
1082.86	555.4
1083.24	550.2
1083.63	548.2
1084.01	543.8
1084.38	569.8
1084.78	555.4
1085.16	565
1085.55	562.8
1085.93	563.4
1086.31	548
1086.7	585.2
1087.08	559.6
1087.46	562.8
1087.83	553.2
1088.23	560.4
1088.61	554.2
1088.99	558.6
1089.36	547.4
1089.76	551.2
1090.14	550.2
1090.52	556
1090.9	557.2
1091.27	576.6
1091.67	583.4
1092.05	561.6
1092.43	548
1092.81	557.8
1093.19	561.4
1093.57	552.4
1093.95	552.4
1094.35	556.4
1094.73	567.4
1095.11	549.2
1095.49	551.6
1095.87	548.2
1096.25	574
1096.63	565.6
1097.01	557
1097.39	560.6
1097.77	560.6
1098.15	561.6
1098.53	553.8
1098.91	559.6
1099.29	551
1099.68	569.6
1100.06	563.2
1100.44	563.8
1100.82	563.2
1101.18	560.8
1101.56	548
1101.95	551.8
1102.33	558.2
1102.71	565.4
1103.1	550
1103.48	547.8
1103.86	544.4
1104.22	563.4
1104.61	559.6
1104.99	553
1105.38	548.8
1105.76	553.8
1106.12	551.8
1106.51	583.4
1106.89	562.2
1107.26	551
1107.64	563
1108.03	552.6
1108.41	563.2
1108.78	559.2
1109.16	551.4
1109.55	567.6
1109.91	538.2
1110.3	548.8
1110.69	558
1111.05	554.2
1111.44	551.2
1111.8	559
1112.19	554.6
1112.58	557.4
1112.94	555.6
1113.33	546.4
1113.7	545
1114.09	549.8
1114.45	546.4
1114.84	554.4
1115.21	562.2
1115.6	547.8
1115.96	556
1116.35	556.2
1116.72	553.6
1117.11	553.8
1117.48	549
1117.85	551.2
1118.24	566.6
1118.6	557.6
1118.99	550.8
1119.36	561.2
1119.73	557.2
1120.12	561.4
1120.49	553
1120.86	556.2
1121.25	556.6
1121.62	546
1121.99	551.4
1122.38	562
1122.76	567
1123.13	551.2
1123.5	560.6
1123.89	567.6
1124.26	548.2
1124.63	551.6
1125	555.8
1125.4	550.2
1125.77	554.6
1126.14	545.8
1126.51	555.2
1126.88	556.8
1127.26	545.6
1127.63	542
1128.02	551.8
1128.4	548.6
1128.77	552
1129.14	552.6
1129.52	555.8
1129.89	554.8
1130.26	555.8
1130.64	548
1131.01	546
