#lambda/nm	C1
208.295	539
208.67	482.6
209.045	447.8
209.419	443
209.794	609.2
210.169	586
210.544	703.8
210.919	605.4
211.295	594.2
211.67	604.2
212.045	599.8
212.421	599.4
212.796	640.4
213.172	599.8
213.547	594.8
213.923	601.4
214.299	599
214.675	608.6
215.051	603.4
215.427	607.8
215.803	618
216.179	604.6
216.555	601.6
216.932	608.8
217.308	608.4
217.684	608.6
218.061	602.8
218.438	602.6
218.814	599.4
219.191	614.4
219.568	589.8
219.945	597.6
220.322	611.6
220.699	607.6
221.076	608.2
221.453	613.2
221.83	589.2
222.208	597.8
222.585	593
222.962	604
223.34	594.6
223.717	592.8
224.095	598.8
224.473	602.6
224.851	599.8
225.229	597.2
225.607	612.6
225.985	590
226.363	605.2
226.741	597
227.119	599.6
227.497	610.2
227.876	591.2
228.254	604
228.633	610.6
229.011	607.8
229.39	606.4
229.769	596
230.148	608.6
230.527	617.4
230.905	607.6
231.284	604.6
231.664	594
232.043	614.2
232.422	606.2
232.801	601
233.181	614.8
233.56	605.6
233.94	598.2
234.319	593
234.699	603
235.079	641.4
235.458	636.6
235.838	617
236.218	597
236.598	595
236.978	598.2
237.358	597.2
237.738	597.6
238.119	616.8
238.499	592.4
238.88	601
239.26	612
239.641	596.4
240.021	596.8
240.402	596.6
240.783	591.2
241.163	598.6
241.544	608.8
241.925	606.2
242.306	620.2
242.687	607.4
243.069	606.6
243.45	609.4
243.831	599.2
244.212	599.2
244.594	627.8
244.975	613.4
245.357	611.4
245.739	592.6
246.12	602.4
246.502	623.2
246.884	608.6
247.266	600.6
247.648	607.4
248.03	628
248.412	611
248.794	612.6
249.176	599.4
249.559	608.4
249.941	598.2
250.323	596
250.706	594.8
251.089	600
251.471	606
251.854	593.4
252.237	604.6
252.62	611.6
253.002	596.2
253.385	598
253.769	616.2
254.152	603.4
254.535	605
254.918	598.6
255.301	606
255.685	605.8
256.068	599.6
256.452	631.2
256.835	615.2
257.219	611.8
257.603	616.2
257.986	597.4
258.37	609.4
258.754	593.4
259.138	609.4
259.522	610
259.906	605.8
260.29	603.2
260.675	599.4
261.059	606.8
261.443	594
261.828	608.8
262.212	606.4
262.597	592.4
262.981	595.6
263.366	612.2
263.751	594.2
264.136	591.8
264.521	601.8
264.906	595.4
265.291	611.6
265.676	598
266.061	606
266.446	614
266.831	596
267.217	617.2
267.602	602.2
267.987	601.4
268.373	595.8
268.759	606.2
269.144	608.2
269.53	593
269.916	597.6
270.302	594.4
270.688	600.8
271.074	606.8
271.46	613.8
271.846	630.2
272.232	599.6
272.618	599.8
273.004	596.2
273.391	608.8
273.777	616.8
274.164	609
274.55	615.4
274.937	602.8
275.324	600
275.71	614.2
276.097	607
276.484	596.2
276.871	596.6
277.258	603.6
277.645	592.8
278.032	605.4
278.419	605
278.807	604.4
279.194	597.4
279.581	602.2
279.969	607.4
280.356	605.4
280.744	607.8
281.131	630.4
281.519	614.2
281.907	605.8
282.295	593.8
282.682	614.4
283.07	613.2
283.458	611.2
283.846	608.6
284.235	613.8
284.623	616.6
285.011	598.8
285.399	608.2
285.788	604.6
286.176	586.8
286.565	611
286.953	602.4
287.342	603
287.731	591
288.119	600
288.508	601.4
288.897	592.6
289.286	591.4
289.675	603.6
290.064	615.4
290.453	608
290.821	597.2
291.21	617.8
291.599	603.8
291.989	603.4
292.378	610.2
292.768	613.8
293.157	603.6
293.547	618.2
293.936	602.6
294.326	596.4
294.716	615.4
295.106	594
295.496	608
295.886	609
296.276	598.6
296.666	599.4
297.056	601.6
297.446	604
297.836	623.4
298.227	612
298.617	606.2
299.008	621.6
299.398	604.6
299.789	587.6
300.179	614.8
300.57	612
300.961	594
301.352	596.4
301.742	606.6
302.133	603.4
302.524	604.6
302.915	606.8
303.307	602.2
303.698	606.8
304.089	610
304.48	601.6
304.872	607.8
305.263	599.6
305.655	606.6
306.046	611.4
306.438	609.6
306.829	598.4
307.221	617
307.613	606.6
308.005	604.2
308.397	621.8
308.789	628
309.181	627
309.573	618.8
309.965	607.8
310.357	597.8
310.749	613.6
311.142	594.6
311.534	594.8
311.926	604
312.319	612.6
312.711	602.2
313.104	611.8
313.497	599.8
313.889	634.4
314.282	621
314.675	622.6
315.068	601.8
315.461	604
315.854	634.4
316.247	606.6
316.64	604
317.033	594
317.405	605.8
317.798	595.8
318.192	604.8
318.585	597.8
318.979	609.2
319.372	602.8
319.766	598.6
320.16	610.4
320.553	614.6
320.947	620.8
321.341	597.8
321.735	603.4
322.129	591.4
322.523	622
322.917	592.4
323.311	623.8
323.705	605.6
324.099	601.6
324.494	616.2
324.888	604.8
325.282	602.4
325.677	619.8
326.071	619.8
326.466	620.4
326.861	603.4
327.255	615.8
327.65	620.2
328.045	615.6
328.44	610.6
328.835	605.2
329.23	593.6
329.625	631.8
330.02	599.2
330.415	618.2
330.81	605.4
331.206	604
331.601	606
331.996	615.6
332.37	623.4
332.766	591.4
333.161	622.2
333.557	606
333.953	606.6
334.348	907.8
334.744	604.2
335.14	596.4
335.536	602.8
335.932	611.8
336.328	606.6
336.724	609.8
337.12	606.8
337.516	610.6
337.913	609.4
338.309	615.2
338.705	606.4
339.102	617.4
339.498	601.6
339.895	613.6
340.291	600.6
340.688	617.4
341.085	605.2
341.481	602.2
341.878	607
342.275	619.6
342.672	600.4
343.069	593.4
343.466	590
343.842	615.8
344.239	595.6
344.636	605.4
345.033	590.2
345.431	598.4
345.828	604.2
346.225	592.4
346.623	633.2
347.02	600
347.418	611.8
347.816	623.2
348.213	594.8
348.611	611.2
349.009	597.8
349.407	613.8
349.805	592.2
350.203	589.8
350.601	611.6
350.999	603.6
351.397	656
351.795	607.2
352.193	608.8
352.57	608.6
352.969	616.6
353.367	595
353.766	598
354.164	602
354.563	608.2
354.961	605.6
355.36	591.6
355.759	596.6
356.158	588
356.557	595.6
356.956	593.8
357.355	596
357.754	593.8
358.153	602
358.552	621.8
358.951	600.2
359.35	602.8
359.75	599.8
360.149	589.4
360.527	573.6
360.926	591
361.326	600.8
361.726	603
362.125	594.2
362.525	603.2
362.925	594
363.325	590
363.724	600.8
364.124	593.6
364.524	591.2
364.924	588.4
365.324	599.8
365.725	582.4
366.125	600.4
366.525	596
366.904	589
367.304	578
367.705	600.6
368.105	605.4
368.506	585
368.906	594.2
369.307	591.6
369.708	609.8
370.108	589.2
370.509	607.4
370.91	597.2
371.311	599.8
371.712	596
372.113	585.4
372.514	583.4
372.894	587
373.295	585
373.696	599.8
374.097	604.2
374.499	623.6
374.9	608
375.301	591.4
375.703	603.4
376.105	588
376.506	600.8
376.908	605.6
377.309	600.4
377.711	598
378.113	599
378.493	593.2
378.895	594.8
379.297	602.6
379.699	582.8
380.102	599
380.504	596.6
380.906	595.2
381.308	622.2
381.71	596.2
382.113	600.6
382.515	598.2
382.918	597.2
383.299	590.4
383.701	603.4
384.104	603
384.507	585.2
384.909	593.6
385.312	581.8
385.715	587.8
386.118	595.4
386.521	577.6
386.924	608.2
387.327	594.8
387.709	583.2
388.112	575.2
388.515	589.2
388.918	595
389.322	603.6
389.725	594.8
390.129	613.6
390.532	596.8
390.936	589
391.339	584.6
391.743	598
392.125	590.4
392.529	594.8
392.933	609.8
393.337	591.4
393.74	606.2
394.144	596.2
394.548	597.8
394.953	594.2
395.357	602
395.761	590.6
396.144	600.8
396.548	588.8
396.952	596.2
397.357	595.8
397.761	598.8
398.166	592
398.57	588.8
398.975	590.2
399.379	587.2
399.763	637.8
400.168	606.2
400.572	592.4
400.977	586.6
401.382	611
401.787	605.8
402.192	611.6
402.597	609.8
403.002	583.2
403.386	601
403.791	606
404.197	596.4
404.602	598.4
405.007	595.6
405.413	596.4
405.818	597.4
406.224	592
406.608	594.4
407.014	580.2
407.42	611.8
407.825	588.4
408.231	603.2
408.637	602.6
409.043	607.6
409.449	589.2
409.834	591
410.24	585.6
410.646	606
411.052	607.8
411.458	604.4
411.865	596.6
412.271	602.6
412.677	594.4
413.062	594.6
413.469	593
413.875	615
414.282	612.8
414.689	602.2
415.095	606.2
415.502	588.2
415.888	592
416.294	582.8
416.701	635.4
417.108	590.8
417.515	610.8
417.923	588.2
418.33	614
418.715	600.6
419.123	595.2
419.53	589.8
419.937	596.4
420.345	609.2
420.752	597.2
421.16	612.6
421.546	598.8
421.953	591.6
422.361	589.6
422.769	592.4
423.177	594
423.585	623
423.992	616.6
424.379	605.8
424.787	604.4
425.195	613
425.603	600
426.011	608.6
426.419	610.4
426.806	598
427.214	600.2
427.623	608
428.031	605.6
428.44	599.8
428.848	613
429.235	621.4
429.644	600.6
430.053	596.4
430.461	615.2
430.87	625
431.279	596.4
431.666	592.2
432.075	606.2
432.484	600
432.893	594.2
433.302	613
433.711	638.6
434.099	605.2
434.508	594.8
434.918	585.6
435.327	601.8
435.737	600.2
436.125	594.8
436.534	608.4
436.944	599.6
437.353	610
437.763	617.6
438.173	593.8
438.561	612.4
438.971	587
439.381	598.6
439.791	599
440.201	578.6
440.589	593.4
440.999	598.2
441.409	599.8
441.819	589.4
442.23	608
442.619	599.2
443.029	595.4
443.439	598.6
443.85	606.8
444.26	605.6
444.649	607.2
445.06	600
445.471	590.6
445.881	605
446.292	603.8
446.682	602.8
447.092	582.6
447.503	647.6
447.914	595.8
448.325	590.6
448.715	587.4
449.126	591.2
449.537	597.6
449.948	602.2
450.338	589
450.75	602.4
451.161	592.4
451.572	605.8
451.984	589.2
452.374	580.2
452.786	586.8
453.197	597.2
453.609	607
453.999	586.4
454.411	592.8
454.823	606.8
455.235	594.4
455.647	585.6
456.037	604.6
456.449	579.2
456.862	601.2
457.274	594.2
457.665	585.4
458.077	591
458.489	613.2
458.902	593.2
459.293	593.8
459.705	589.8
460.118	587.2
460.53	598.8
460.921	591.2
461.334	596.6
461.747	590.6
462.16	596.2
462.551	599.8
462.964	585.6
463.377	576.4
463.79	588.4
464.182	599.4
464.595	590.4
465.008	597.4
465.421	596.2
465.813	594.2
466.226	592.6
466.64	587.6
467.053	629.8
467.445	602.4
467.859	610.6
468.272	594.6
468.686	605.2
469.078	591.8
469.492	583.4
469.906	589.4
470.298	597.8
470.712	583.4
471.126	631.4
471.54	584.2
471.933	584.6
472.347	586
472.761	584.6
473.175	583
473.568	583.8
473.982	577.6
474.397	590.8
474.79	596.4
475.204	592.2
475.619	586.2
476.033	596.4
476.426	588.2
476.841	583.2
477.256	613.2
477.649	584.6
478.064	584.2
478.479	586
478.872	582.2
479.287	578
479.702	578
480.118	584.6
480.511	590.6
480.927	591
481.342	582
481.736	591.6
482.151	585.6
482.566	602.8
482.96	588.8
483.376	605.4
483.792	577.6
484.186	592
484.602	593
485.017	588.6
485.412	589
485.827	593
486.243	584.4
486.638	609
487.054	600.8
487.47	597.6
487.865	584.2
488.281	584.6
488.697	581
489.092	586
489.508	580.2
489.925	599
490.32	574
490.736	595.2
491.153	590.6
491.548	593.8
491.964	597.2
492.381	577.6
492.776	592.4
493.193	592.4
493.61	593.2
494.006	585.2
494.422	598.4
494.84	586.6
495.235	592
495.652	589.6
496.069	593.4
496.465	582.2
496.883	582.8
497.3	609.6
497.696	585.4
498.113	594.2
498.509	582.4
498.927	577.6
499.344	580.2
499.741	587
500.158	597.8
500.576	594
500.973	588.8
501.39	574.4
501.787	578.4
502.205	593.6
502.623	580
503.02	576.4
503.438	577.4
503.856	586.2
504.253	587.6
504.671	593.2
505.068	584.4
505.486	587.2
505.905	606.6
506.302	581.4
506.72	595
507.118	574.6
507.536	583.6
507.955	584
508.352	596.6
508.771	591.4
509.169	594.2
509.587	586.6
510.006	582.2
510.404	576.2
510.823	582.4
511.221	589.2
511.64	579
512.038	595.6
512.457	588.6
512.877	583
513.275	584.2
513.694	585.2
514.092	584.6
514.512	580.8
514.91	592.4
515.33	583.4
515.749	588.8
516.148	590.4
516.568	576.4
516.966	582.4
517.386	580.8
517.785	585.4
518.205	576
518.603	574.6
519.024	578
519.444	581
519.843	591.6
520.263	593.8
520.662	593.2
521.082	581.8
521.481	590.8
521.902	594
522.301	591.6
522.722	585.2
523.121	583.8
523.542	583.4
523.963	585.2
524.362	589.4
524.783	590.2
525.183	581.2
525.604	581.4
526.003	580.4
526.425	578.4
526.824	595.2
527.246	586.4
527.646	599.8
528.067	584
528.467	580.4
528.888	592.8
529.289	588
529.71	576.8
530.11	581.8
530.532	582
530.932	585.6
531.354	586.6
531.755	615.2
532.176	592.4
532.577	583.8
532.999	582.8
533.4	575.8
533.822	594.2
534.223	592.4
534.645	585.6
535.046	585.4
535.468	589.2
535.869	604
536.292	582.8
536.693	615
537.115	588.2
537.516	587.4
537.939	571
538.34	610.8
538.742	594.2
539.165	592.6
539.566	589
539.989	585.6
540.391	581.6
540.814	586.6
541.216	597.6
541.639	583
542.041	592
542.464	580.2
542.866	575.8
543.268	574
543.691	585.2
544.093	588.2
544.517	610.2
544.919	572.8
545.343	601.6
545.745	583.2
546.147	579.8
546.571	582.6
546.974	580
547.398	590.6
547.8	604.8
548.224	578.4
548.627	574.6
549.03	582.6
549.454	574.6
549.857	579.2
550.281	583
550.684	578.6
551.087	585.8
551.512	589
551.915	586.2
552.34	585.8
552.743	582.8
553.146	581.8
553.571	582.2
553.975	592.2
554.399	588.8
554.803	615.8
555.207	579.4
555.632	577.6
556.036	590.8
556.461	579
556.865	576.4
557.268	583.4
557.694	572
558.098	584.2
558.502	584.2
558.927	574.8
559.332	573
559.736	580
560.162	577
560.566	577.8
560.992	579.4
561.396	590.2
561.801	571.8
562.227	587.6
562.631	580.2
563.036	583.6
563.462	593.8
563.867	584.8
564.272	568.8
564.698	587.8
565.103	580.2
565.508	603.4
565.935	584
566.34	577.6
566.745	591.2
567.172	586
567.577	601.8
567.982	597.4
568.409	581
568.815	576.4
569.22	586
569.626	591.4
570.053	573.8
570.459	592.8
570.865	593
571.292	586.8
571.698	593.2
572.104	570
572.531	582.4
572.937	599.2
573.343	583.6
573.75	581
574.177	585.6
574.583	583.2
574.99	580
575.396	581
575.824	576.8
576.231	596.2
576.637	581.2
577.065	604.4
577.472	579.6
577.879	577.4
578.286	588.4
578.714	576.8
579.121	584.4
579.528	585.6
579.935	588.2
580.364	579.2
580.771	571.8
581.178	576
581.585	576.6
582.014	588.4
582.421	575.2
582.829	578.2
583.236	593
583.644	578.6
584.073	577.6
584.481	581.4
584.889	579.8
585.296	581.8
585.726	580.8
586.134	577.6
586.542	578.2
586.95	594.8
587.358	571
587.787	576
588.196	590.8
588.604	573.4
589.012	582
589.421	575.8
589.851	576.8
590.259	583.6
590.668	584.8
591.076	612
591.485	575.6
591.894	586.6
592.324	590.6
592.733	589.2
593.142	580
593.551	584.4
593.96	582.8
594.369	580.8
594.8	576.2
595.209	584.6
595.618	563.8
596.028	580.2
596.437	579.8
596.847	582.2
597.256	583.8
597.687	588.2
598.097	577.2
598.507	574.4
598.917	583.2
599.327	589.6
599.736	576
600.146	589.2
600.556	592
600.988	591
601.398	573.2
601.808	590
602.219	568.8
602.629	583.2
603.039	580.6
603.45	611.6
603.86	584.6
604.271	602.6
604.703	586
605.114	582.4
605.525	581.4
605.935	574.6
606.346	600.4
606.757	579.8
607.168	581.2
607.579	579.4
607.99	591.2
608.402	586.2
608.813	590.8
609.224	584.2
609.636	570.6
610.047	583.6
610.48	583.8
610.892	586.4
611.303	584.4
611.715	574
612.127	571.4
612.539	573
612.95	578.6
613.362	572.4
613.774	569.2
614.186	570.8
614.599	577.8
615.011	587.2
615.423	578
615.835	568.2
616.248	573
616.66	587
617.073	571.4
617.485	582.2
617.898	586.8
618.311	592.8
618.723	580.6
619.136	607
619.549	609
619.962	603.8
620.375	580.8
620.788	583.4
621.201	583.4
621.614	580
622.028	584.4
622.441	587.4
622.854	593.6
623.268	579.2
623.681	576.8
624.095	581.4
624.509	587.2
624.922	586.2
625.336	571.8
625.728	586.4
626.142	588
626.556	589
626.97	580.6
627.384	583.6
627.799	582
628.213	589
628.627	575.6
629.041	578
629.456	580
629.87	586.8
630.285	592.4
630.699	592
631.093	585.6
631.507	583.2
631.922	590.4
632.337	595.8
632.752	576.8
633.167	581.4
633.582	577
633.997	580.8
634.412	582.8
634.806	583.8
635.221	572.4
635.637	589
636.052	567.6
636.468	583.2
636.883	596.2
637.299	581.6
637.715	576.2
638.109	578.4
638.525	562.4
638.941	586.4
639.357	582
639.773	589.4
640.189	577.2
640.584	576
641	588.8
641.416	571.8
641.832	578
642.249	578.8
642.665	581.4
643.06	579.2
643.477	591.2
643.894	568.6
644.31	578.4
644.727	581.2
645.123	585.2
645.54	577.4
645.957	585.2
646.374	599.4
646.77	581.6
647.187	609.4
647.604	584.4
648.021	568
648.439	578
648.835	583
649.252	577.6
649.67	574.4
650.088	576.4
650.484	573.4
650.902	591.4
651.32	586.2
651.738	582.8
652.134	580.4
652.552	590.2
652.971	578.8
653.389	573
653.786	586
654.204	597.8
654.622	564.6
655.019	573.8
655.438	579.8
655.857	574.4
656.275	582
656.673	570.6
657.091	583
657.51	568.6
657.908	580.6
658.327	592.6
658.746	564.4
659.144	575
659.563	590.8
659.982	576.2
660.38	568.4
660.8	572.4
661.219	587.2
661.617	585
662.037	578.4
662.457	587.4
662.855	566.8
663.275	610.8
663.695	574.2
664.094	577.6
664.514	577.2
664.934	577.4
665.333	579.4
665.753	569
666.152	568.4
666.572	567.6
666.993	592.2
667.392	572.6
667.812	574.2
668.212	581.6
668.632	582.2
669.053	574.6
669.453	586.6
669.874	577.8
670.273	586
670.694	573.6
671.116	583
671.515	584.8
671.937	577.2
672.337	575
672.758	578.6
673.158	584.2
673.58	571
673.98	581.4
674.402	592.2
674.824	579.2
675.224	571.2
675.646	575.6
676.047	569.2
676.469	581.8
676.869	582.8
677.292	588.6
677.693	567.6
678.115	572
678.516	581.8
678.939	582.2
679.34	577.8
679.762	591.6
680.164	580.6
680.586	572
680.988	573.4
681.411	605.6
681.812	577.6
682.236	578.6
682.637	565.8
683.061	572.6
683.462	580.4
683.864	581
684.288	587.6
684.69	573
685.114	587
685.516	592.2
685.94	569.4
686.342	588.6
686.766	571.2
687.168	571
687.571	581.4
687.995	578.6
688.398	569.6
688.822	574.2
689.225	589.4
689.628	592.4
690.052	567.2
690.456	587.4
690.88	571.6
691.284	563.4
691.687	580.4
692.112	577.6
692.515	572.8
692.919	573.6
693.344	575.2
693.747	581
694.173	574.4
694.577	589
694.98	583.6
695.406	578.4
695.81	579
696.214	574.4
696.64	574.8
697.044	574.8
697.448	592
697.874	575.6
698.279	575.6
698.684	569.2
699.11	569.8
699.514	575.2
699.919	579
700.324	564.4
700.75	579.2
701.156	576.8
701.561	583.8
701.987	583.8
702.393	589.8
702.798	583.8
703.203	575.4
703.63	572.8
704.036	567.6
704.442	584.8
704.847	573
705.274	572.2
705.68	579.4
706.086	587.4
706.492	573
706.92	573.6
707.326	575.2
707.732	571.8
708.139	570.8
708.545	568.4
708.973	569.8
709.38	575.2
709.786	567
710.193	591.8
710.6	572.8
711.028	569.4
711.435	578.2
711.842	571.4
712.249	570.6
712.656	575.8
713.064	581.4
713.492	571.2
713.9	570.6
714.307	573.8
714.715	568.8
715.123	579
715.53	580.2
715.938	580.8
716.367	580
716.775	584.8
717.184	569.2
717.592	573.8
718	585.2
718.408	608
718.816	604.2
719.225	588.8
719.633	590.4
720.042	574.4
720.472	569.8
720.881	601.8
721.29	580.8
721.699	567.4
722.108	578.4
722.517	581.4
722.926	576.6
723.335	580.4
723.744	582.2
724.154	580
724.563	581.8
724.973	574.2
725.382	574.2
725.792	573.6
726.202	560.8
726.612	596.2
727.022	573.6
727.432	574.8
779.813	579.8
780.223	618.2
780.634	577
781.044	572.8
781.454	574
781.865	586.4
782.276	570.8
782.686	588.6
783.097	576
783.508	581.2
783.919	579.4
784.33	590
784.741	593.2
785.152	567
785.563	569
785.974	560
786.386	577.2
786.776	574.2
787.188	571.4
787.599	564.2
788.011	578.6
788.423	579.4
788.835	570.8
789.247	566
789.659	573.8
790.071	571.8
790.483	613.4
790.874	575.2
791.286	580.8
791.699	572.6
792.111	572.4
792.524	581.6
792.937	573.4
793.349	570
793.741	573
794.154	559.6
794.567	592.4
794.98	570.8
795.393	566
795.785	580.4
796.198	561.4
796.612	572.2
797.026	561.6
797.439	565.2
797.831	573.8
798.245	565
798.659	570.8
799.073	568.6
799.487	568.4
799.88	570.2
800.294	580.2
800.708	578
801.123	569
801.516	588.2
801.93	553.8
802.345	557.6
802.76	566.2
803.153	583.6
803.568	576
803.983	580.6
804.377	573.8
804.792	558.8
805.207	552.4
805.601	572.4
806.016	598.6
806.432	560.8
806.826	594.2
807.242	579.6
807.658	577.4
808.052	569.6
808.468	575.2
808.884	561.8
809.279	577
809.695	574
810.111	591
810.506	580
810.922	593.2
811.339	570.4
811.734	577.2
812.151	570.4
812.546	575.2
812.963	568.8
813.38	575.8
813.776	572.4
814.193	604
814.589	564.4
815.006	567.4
815.402	569.8
815.82	576
816.237	573.8
816.633	575.8
817.051	565.8
817.448	577
817.866	570.6
818.262	593.8
818.68	578.2
819.077	577.2
819.495	575.4
819.892	608.2
820.311	573.8
820.708	566.8
821.127	568.4
821.524	582.8
821.943	581.2
822.34	593.4
822.759	575.4
823.157	580
823.576	594
823.974	581.4
824.393	614.6
824.791	576
825.189	564.4
825.609	563.4
826.007	571.4
826.427	569
826.826	569.8
827.246	573.4
827.644	560
828.043	592
828.463	572.2
828.862	582.4
829.261	581.4
829.682	562.4
830.081	582.2
830.502	570
830.901	584
831.301	589
831.722	562.6
832.121	580
832.521	570.6
832.943	576
833.342	573
833.742	567.2
834.164	573.4
834.564	569.8
834.965	568
835.386	574.8
835.787	572
836.188	567.2
836.588	574.8
837.01	571.6
837.411	566
837.812	576
838.213	585.6
838.636	568
839.037	638
839.438	568.8
839.84	580.8
840.263	585
840.664	577.2
841.066	568.8
841.468	569.2
841.891	571
842.293	581
842.695	580.8
843.098	582.8
843.5	564.8
843.902	579.2
844.326	568.8
844.729	562.8
845.131	580.2
845.534	565.4
845.937	585
846.34	588.2
846.764	569
847.167	575.6
847.571	565.8
847.974	569.6
848.377	568.4
848.781	611.8
849.184	586.2
849.588	575.2
849.992	565
850.396	581.4
850.821	588.8
851.225	576
851.63	566.2
852.034	580.4
852.438	572.6
852.843	643.6
853.247	564.8
853.652	563
854.057	582
854.462	569.6
854.867	565.6
855.272	598
855.677	565.4
856.082	561
856.487	560
856.893	575.6
857.298	570
857.704	562.8
858.11	575.4
858.516	570.8
858.922	567.4
859.328	582
859.734	565.6
860.14	568
860.525	570.2
860.931	570.2
861.338	569.8
861.745	579.6
862.151	580.2
862.558	574.6
862.965	566.6
863.372	570
863.779	562
864.186	591.8
864.572	577.2
864.98	584
865.387	600.6
865.795	567.6
866.203	577.2
866.61	562.2
867.018	581.2
867.405	572.8
867.813	564.6
868.221	573.6
868.63	567.2
869.038	588.6
869.425	604.8
869.834	570.2
870.243	570
870.652	560.2
871.039	570.2
871.448	572.4
871.857	583
872.266	575.2
872.654	573.6
873.064	565.8
873.473	576.8
873.883	570.2
874.271	565.8
874.681	585
875.091	560.4
875.48	579.6
875.89	586.2
876.3	572.4
876.689	568
877.1	574.2
877.51	577.8
877.9	586
878.31	569.4
878.721	601.4
879.111	574.8
879.522	570.6
879.933	565.6
880.323	553
880.734	568
881.125	572.2
881.536	560
881.948	566
882.338	570.6
882.75	581.6
883.141	562.8
883.553	573.8
883.944	587.2
884.356	588.4
884.769	572.8
885.16	567.8
885.573	572.6
885.964	563.8
886.377	568.2
886.768	564.6
887.181	571
887.573	569.4
887.987	575.8
888.378	586
888.792	569.2
889.184	620
889.598	575.4
889.99	577
890.383	569
890.797	566.6
891.19	576.4
891.604	572.4
891.997	556.2
892.411	564.6
892.805	565.8
893.198	562
893.613	559.8
894.006	570.6
894.421	557.6
894.815	557.2
895.209	561.4
895.624	606.4
896.018	590
896.412	558
896.828	566.4
897.222	570.4
897.617	561.4
898.033	590
898.427	562.4
898.822	563.4
899.239	558.4
899.634	559.4
900.029	575.2
900.424	559
900.841	565.4
901.236	575.2
901.632	572.4
902.027	616.4
902.445	577.2
902.841	576.2
903.237	571.2
903.633	579
904.05	573
904.447	577.4
904.843	571.4
905.24	575
905.636	562.6
906.033	571
906.451	574.4
906.848	563.8
907.246	566.2
907.643	568.6
908.04	571
908.438	587
908.835	572.6
909.254	574.6
909.652	571.4
910.05	578
910.448	563.2
910.846	574.6
911.244	565.4
911.643	566.6
912.041	574.6
912.44	596.4
912.839	564.2
913.237	567.4
913.636	560.6
914.035	579.2
914.434	569
914.834	578.6
915.233	573
915.633	564.2
916.032	564
916.432	571.6
916.832	583
917.232	563.8
917.632	555.2
918.032	577.6
918.432	563.8
918.833	566.4
919.233	566.2
919.634	558.4
920.035	578.4
920.436	569.4
920.837	577.4
921.238	570.8
921.639	571.4
922.019	577.4
922.42	574.4
922.822	580.8
923.224	566.4
923.625	559.2
924.027	571.4
924.429	582.6
924.81	573.6
925.212	575.6
925.615	568.8
926.017	574.4
926.42	582
926.801	572.6
927.204	572.6
927.607	577.2
928.01	584.8
928.413	569
928.795	557
929.199	565.6
929.602	564.4
930.006	565.2
930.388	562.6
930.792	573.6
931.196	566
931.579	602.6
931.983	560.8
932.388	608.8
932.771	565.4
933.176	557.8
933.58	571.6
933.964	577.2
934.369	558.6
934.774	572.6
935.158	564
935.563	572
935.947	570.4
936.353	575.2
936.759	562.6
937.143	575
937.549	574.4
937.934	576.6
938.34	588.4
938.746	562.6
939.131	566.6
939.538	556
939.923	576
940.33	563.6
940.716	574.4
941.123	577.2
941.508	579.8
941.916	582.4
942.302	575.2
942.709	567.8
943.096	555.4
943.503	570.6
943.89	572.2
944.298	566.6
944.685	596.6
945.072	569.4
945.48	571.6
945.867	565.8
946.276	560.4
946.663	589.2
947.051	580.4
947.46	579.6
947.848	568.8
948.257	562.4
948.645	567.4
949.033	566.4
949.443	562.6
949.831	594.8
950.22	554.6
950.63	566.4
951.018	590.2
951.407	579
951.796	561.2
952.207	572.4
952.596	573.6
952.985	552.6
953.375	601.2
953.786	565.8
954.176	572.6
954.566	579.8
954.956	561
955.367	566.2
955.758	592.8
956.148	557.2
956.539	582.2
956.929	557.6
957.341	559
957.732	562
958.123	576.2
958.515	558.2
958.906	579.2
959.297	571.2
959.689	563
960.102	569.2
960.494	573.4
960.886	572.6
961.278	574.4
961.67	592.6
962.062	601.8
962.455	570.6
962.847	559.8
963.24	566.6
963.633	565.8
964.026	561
964.419	563
964.812	575.8
965.206	563.4
965.599	575
965.993	570
966.386	566.2
966.78	570.6
967.174	575.2
967.569	565.2
967.963	560.8
968.357	559.2
968.752	562.6
969.146	565.4
969.541	567
969.936	568.6
970.331	574.6
970.705	571.2
971.1	569.2
971.496	575.6
971.892	567
972.287	566.6
972.683	567.2
973.079	568.2
973.454	578
973.85	571
974.247	570
974.643	590.6
975.04	570.4
975.415	571
975.812	567.2
976.209	570.2
976.607	556
976.982	587.2
977.38	582.4
977.778	572.8
978.175	569
978.552	569.2
978.95	569.8
979.348	569.2
979.725	613
980.123	566.6
980.522	565.6
980.899	565.6
981.298	553
981.697	571
982.075	569.4
982.474	562
982.852	576.2
983.251	567
983.651	560
984.029	573.4
984.429	565
984.808	560.6
985.208	559.6
985.609	556
985.987	558.2
986.388	560.6
986.768	570.4
987.168	563.4
987.548	565
987.949	573.6
988.329	567
988.731	547.6
989.111	558.4
989.491	562.6
989.893	568.2
990.273	566
990.676	559.6
991.057	557.6
991.459	559.6
991.84	550.8
992.221	554
992.624	580.2
993.006	567
993.388	570.8
993.791	566.6
994.173	573.6
994.576	602.2
994.959	559.6
995.341	565
995.724	560
996.128	565
996.511	563
996.894	571.4
997.298	562.4
997.681	574.8
998.065	569.2
998.448	565.8
998.854	576.2
999.237	560.6
999.621	570
1000.01	579
1000.39	563.6
1000.8	568.2
1001.18	575.2
1001.56	570
1001.95	572
1002.33	574.8
1002.72	566.6
1003.13	576
1003.51	567
1003.9	558.8
1004.28	579.6
1004.67	564.6
1005.06	573.2
1005.44	595
1005.83	559.2
1006.21	569
1006.6	566.6
1006.99	588.4
1007.37	576.8
1007.76	567.6
1060.12	561.6
1060.51	566.6
1060.89	572.2
1061.28	577
1061.67	584.2
1062.06	567.4
1062.45	568
1062.83	555.6
1063.22	579.6
1063.61	604.2
1064	579.8
1064.39	573
1064.78	561.4
1065.14	584.8
1065.53	568.4
1065.92	570.6
1066.31	559.8
1066.7	574
1067.09	577.4
1067.46	575.6
1067.85	563.4
1068.24	568.4
1068.63	570.6
1069.02	562.6
1069.39	575.2
1069.78	564.4
1070.17	557.6
1070.57	561.6
1070.93	570.2
1071.33	555
1071.72	573.6
1072.11	562.2
1072.48	563.6
1072.87	561.2
1073.26	570.2
1073.64	565.6
1074.03	554.6
1074.4	569.2
1074.79	566
1075.19	563.4
1075.56	573.6
1075.95	567
1076.34	568.4
1076.72	563
1077.11	562.4
1077.48	576.6
1077.88	562.6
1078.25	566
1078.64	571.2
1079.02	572.2
1079.41	573.8
1079.78	574
1080.18	559.4
1080.55	622.4
1080.95	555.6
1081.32	559
1081.72	564.2
1082.09	571.8
1082.49	566
1082.86	567.2
1083.24	560
1083.63	552.8
1084.01	571.8
1084.38	568.4
1084.78	566
1085.16	570.8
1085.55	578
1085.93	584.2
1086.31	558
1086.7	597.2
1087.08	576.8
1087.46	560
1087.83	562.4
1088.23	574.2
1088.61	558.6
1088.99	572.4
1089.36	560.2
1089.76	561.6
1090.14	562
1090.52	562.8
1090.9	561.4
1091.27	569.8
1091.67	585.6
1092.05	569.2
1092.43	560.4
1092.81	573
1093.19	574.2
1093.57	560.8
1093.95	556.8
1094.35	573.8
1094.73	570.2
1095.11	555.6
1095.49	560
1095.87	557.2
1096.25	566
1096.63	575.2
1097.01	557.4
1097.39	572.4
1097.77	565.4
1098.15	563.6
1098.53	563.6
1098.91	560.2
1099.29	564
1099.68	583.6
1100.06	576.8
1100.44	559.8
1100.82	570.2
1101.18	576.6
1101.56	560.8
1101.95	556.8
1102.33	559.8
1102.71	565.4
1103.1	559
1103.48	558.2
1103.86	561
1104.22	567.6
1104.61	566.6
1104.99	558.8
1105.38	551.6
1105.76	564.8
1106.12	561.6
1106.51	592.4
1106.89	567.4
1107.26	568
1107.64	569.2
1108.03	566.4
1108.41	557.2
1108.78	566.2
1109.16	562.8
1109.55	569.6
1109.91	555.2
1110.3	546.4
1110.69	577.6
1111.05	568
1111.44	563.2
1111.8	574.4
1112.19	568.8
1112.58	563.2
1112.94	564.6
1113.33	564.6
1113.7	556.6
1114.09	563
1114.45	560.8
1114.84	565.4
1115.21	570.6
1115.6	557.8
1115.96	574.2
1116.35	573
1116.72	562.6
1117.11	570.8
1117.48	562
1117.85	558.4
1118.24	575.6
1118.6	561.6
1118.99	562.2
1119.36	566
1119.73	567.4
1120.12	566
1120.49	559
1120.86	570.4
1121.25	563.2
1121.62	555.4
1121.99	560.2
1122.38	577
1122.76	565.6
1123.13	569.4
1123.5	569.2
1123.89	580.8
1124.26	565.8
1124.63	564.4
1125	571.2
1125.4	554.6
1125.77	553.8
1126.14	556
1126.51	559.2
1126.88	570.4
1127.26	558.6
1127.63	552.6
1128.02	547
1128.4	558.8
1128.77	557
1129.14	557.6
1129.52	565.2
1129.89	566.6
1130.26	547.6
1130.64	553
1131.01	557.8
