#lambda/nm	C1
208.295	541
208.67	485
209.045	449.8
209.419	453.4
209.794	612
210.169	597
210.544	690.8
210.919	610.8
211.295	592
211.67	602.2
212.045	599
212.421	598.2
212.796	633.4
213.172	596.2
213.547	587.2
213.923	605.2
214.299	604.2
214.675	611
215.051	610
215.427	609.6
215.803	612.6
216.179	610.8
216.555	588
216.932	607.8
217.308	597
217.684	608
218.061	609.4
218.438	605.6
218.814	603
219.191	600.6
219.568	597.8
219.945	602.8
220.322	604.4
220.699	608.4
221.076	599.8
221.453	598.2
221.83	596.8
222.208	597
222.585	592.8
222.962	602.2
223.34	609.6
223.717	604.6
224.095	598.2
224.473	602
224.851	595.2
225.229	584.6
225.607	614.2
225.985	592
226.363	607.8
226.741	602.8
227.119	593.8
227.497	614.4
227.876	585.6
228.254	608.4
228.633	603
229.011	607.4
229.39	610.6
229.769	610
230.148	604.4
230.527	619.6
230.905	599.2
231.284	597.8
231.664	592.8
232.043	612.6
232.422	604.6
232.801	597.8
233.181	605.6
233.56	598
233.94	596.8
234.319	585.8
234.699	589.6
235.079	627.6
235.458	628.6
235.838	618.8
236.218	598.6
236.598	593.8
236.978	591.2
237.358	596.8
237.738	590.6
238.119	616.2
238.499	594.2
238.88	597.8
239.26	612
239.641	585.2
240.021	591
240.402	601.2
240.783	591.8
241.163	600.8
241.544	597.6
241.925	600.8
242.306	605.8
242.687	601
243.069	600.2
243.45	608.8
243.831	588.8
244.212	598.2
244.594	634.4
244.975	610
245.357	606.6
245.739	596.4
246.12	593.6
246.502	612.8
246.884	599.8
247.266	599.8
247.648	599
248.03	623.6
248.412	611.4
248.794	611.4
249.176	597.4
249.559	616.4
249.941	597.4
250.323	589.4
250.706	593.4
251.089	599.8
251.471	604.4
251.854	600.2
252.237	602.6
252.62	608.2
253.002	600.4
253.385	601.8
253.769	612.4
254.152	608.8
254.535	606.6
254.918	595.2
255.301	601.4
255.685	599.4
256.068	593.6
256.452	616
256.835	608.8
257.219	599.8
257.603	609.2
257.986	600.4
258.37	602.2
258.754	598.6
259.138	609
259.522	612.4
259.906	592.4
260.29	607.6
260.675	595.6
261.059	602.6
261.443	590
261.828	609.6
262.212	600.4
262.597	592.2
262.981	601.8
263.366	609.8
263.751	608
264.136	600.4
264.521	593.8
264.906	597.4
265.291	608
265.676	597
266.061	606
266.446	624.2
266.831	602
267.217	620.8
267.602	604.4
267.987	601.8
268.373	598.4
268.759	604.6
269.144	600.4
269.53	598.6
269.916	600.4
270.302	598.4
270.688	607.6
271.074	606
271.46	609
271.846	623.4
272.232	604.8
272.618	596.4
273.004	610.6
273.391	610.8
273.777	609.6
274.164	610.2
274.55	613
274.937	601.4
275.324	604.2
275.71	604.2
276.097	608.6
276.484	607.6
276.871	594.2
277.258	605.6
277.645	595.8
278.032	603
278.419	598.8
278.807	609.4
279.194	598.6
279.581	595.4
279.969	605.8
280.356	606.8
280.744	598.4
281.131	619
281.519	603
281.907	594.4
282.295	595.2
282.682	613.6
283.07	602.6
283.458	601.4
283.846	601
284.235	612.6
284.623	609.8
285.011	598.4
285.399	608.2
285.788	601.8
286.176	591
286.565	607.2
286.953	590.8
287.342	592.6
287.731	586.4
288.119	594.8
288.508	593.8
288.897	598.6
289.286	591.8
289.675	597.4
290.064	608.8
290.453	593
290.821	594.8
291.21	620.4
291.599	591.4
291.989	597.8
292.378	612
292.768	624.6
293.157	606.8
293.547	605
293.936	604.4
294.326	594
294.716	607.2
295.106	597.6
295.496	606.8
295.886	615.6
296.276	595.2
296.666	591.6
297.056	597.4
297.446	595.6
297.836	621.4
298.227	594.8
298.617	610.4
299.008	615
299.398	599.6
299.789	599.6
300.179	613.6
300.57	610.8
300.961	599.6
301.352	598.4
301.742	601.8
302.133	607.2
302.524	599.8
302.915	611
303.307	595.8
303.698	609.6
304.089	610.8
304.48	605.2
304.872	603.2
305.263	605
305.655	597.6
306.046	610.8
306.438	606.2
306.829	603
307.221	608.2
307.613	610
308.005	614.4
308.397	616
308.789	619.8
309.181	624.8
309.573	615.6
309.965	611.6
310.357	599.8
310.749	615.2
311.142	586.4
311.534	599.6
311.926	601.6
312.319	603.2
312.711	600.6
313.104	614.8
313.497	602.8
313.889	636.4
314.282	621
314.675	621.6
315.068	603.8
315.461	606
315.854	634.4
316.247	605.6
316.64	605
317.033	601.6
317.405	614.6
317.798	591.8
318.192	604.4
318.585	596.6
318.979	605.6
319.372	597.8
319.766	595.6
320.16	613.4
320.553	610.2
320.947	622.2
321.341	601.6
321.735	603
322.129	596.4
322.523	633.2
322.917	592.2
323.311	610.2
323.705	610.4
324.099	603.8
324.494	623
324.888	613.6
325.282	599
325.677	620.2
326.071	615
326.466	613.2
326.861	602.8
327.255	615.6
327.65	612
328.045	624.4
328.44	602.4
328.835	600.4
329.23	593.8
329.625	614.2
330.02	602.4
330.415	624.2
330.81	604
331.206	606.6
331.601	605.8
331.996	608.6
332.37	622
332.766	589.8
333.161	626.6
333.557	602
333.953	605.4
334.348	921.8
334.744	600.8
335.14	599.6
335.536	599.4
335.932	608.4
336.328	600.2
336.724	617.2
337.12	601.2
337.516	603.2
337.913	602
338.309	613.2
338.705	601.6
339.102	613.6
339.498	595.4
339.895	609.6
340.291	600.8
340.688	613.6
341.085	587.4
341.481	597.4
341.878	591.2
342.275	617
342.672	596.4
343.069	593.6
343.466	581.8
343.842	608.8
344.239	598.2
344.636	605
345.033	591.2
345.431	600.4
345.828	603.6
346.225	592
346.623	636.4
347.02	605.8
347.418	605.8
347.816	620.4
348.213	593.2
348.611	603.4
349.009	596.4
349.407	609.8
349.805	591.4
350.203	599.6
350.601	609.6
350.999	595
351.397	655.4
351.795	596
352.193	603.8
352.57	615
352.969	611.8
353.367	590.6
353.766	592.6
354.164	599
354.563	614
354.961	599.6
355.36	596.4
355.759	597.2
356.158	598
356.557	600.8
356.956	592.6
357.355	584.4
357.754	602.4
358.153	610.8
358.552	620.6
358.951	597.6
359.35	609
359.75	594.2
360.149	591.8
360.527	588
360.926	584.4
361.326	598
361.726	597.2
362.125	593.8
362.525	604.8
362.925	590.6
363.325	599.4
363.724	599.8
364.124	586.4
364.524	597
364.924	592.6
365.324	612.8
365.725	578.8
366.125	597.4
366.525	597.6
366.904	590.6
367.304	586.4
367.705	609.8
368.105	603.4
368.506	596.2
368.906	599.8
369.307	594
369.708	593
370.108	592.4
370.509	601.2
370.91	588.4
371.311	594.2
371.712	601.2
372.113	595.6
372.514	577.6
372.894	595.4
373.295	589.8
373.696	608.8
374.097	599.4
374.499	622.4
374.9	589.2
375.301	593.6
375.703	593.4
376.105	593.2
376.506	597.4
376.908	596.8
377.309	600
377.711	597.6
378.113	586.6
378.493	591
378.895	589.8
379.297	599.2
379.699	583.2
380.102	591
380.504	585.2
380.906	586.6
381.308	609.2
381.71	589.4
382.113	599.6
382.515	590
382.918	593.8
383.299	595.8
383.701	596.4
384.104	593.8
384.507	583.8
384.909	590.8
385.312	578.2
385.715	579.8
386.118	590.8
386.521	581.8
386.924	602.4
387.327	586
387.709	583.6
388.112	577.2
388.515	591
388.918	593.8
389.322	594.8
389.725	590.8
390.129	612.6
390.532	604.2
390.936	596.8
391.339	589.6
391.743	600
392.125	591.4
392.529	610.2
392.933	608.8
393.337	589.6
393.74	594.6
394.144	587.2
394.548	585.8
394.953	581
395.357	598.2
395.761	589.6
396.144	595.4
396.548	592.2
396.952	591.4
397.357	595.4
397.761	591.6
398.166	585.2
398.57	585.6
398.975	585
399.379	594.8
399.763	642.6
400.168	592.6
400.572	591.2
400.977	592.8
401.382	615.6
401.787	598
402.192	610
402.597	600.6
403.002	585.6
403.386	601.4
403.791	604.2
404.197	596.2
404.602	597.4
405.007	591
405.413	592.6
405.818	593.8
406.224	593
406.608	599.2
407.014	589.4
407.42	611.4
407.825	590
408.231	602.4
408.637	603
409.043	605.8
409.449	594.2
409.834	589
410.24	595
410.646	606.8
411.052	603
411.458	604.2
411.865	602.2
412.271	605.8
412.677	604
413.062	597
413.469	586.4
413.875	619.4
414.282	611.2
414.689	599.4
415.095	600.4
415.502	588
415.888	597
416.294	572
416.701	624.6
417.108	588.8
417.515	597.2
417.923	598.8
418.33	610.4
418.715	610
419.123	592.8
419.53	590.4
419.937	594.4
420.345	598.2
420.752	592.2
421.16	608.6
421.546	598.2
421.953	597.2
422.361	591.6
422.769	600
423.177	598.8
423.585	617.6
423.992	615
424.379	605.8
424.787	608.2
425.195	614.8
425.603	592
426.011	606.2
426.419	616
426.806	600
427.214	601.6
427.623	605.6
428.031	600
428.44	594.2
428.848	607.8
429.235	607.8
429.644	597
430.053	594.8
430.461	604
430.87	614.4
431.279	605.6
431.666	594.8
432.075	593.2
432.484	602.4
432.893	595.8
433.302	609
433.711	639.8
434.099	601
434.508	588
434.918	589.6
435.327	603
435.737	597.6
436.125	599.4
436.534	594.6
436.944	600.2
437.353	599.4
437.763	615
438.173	585.6
438.561	605.6
438.971	582.6
439.381	593.2
439.791	596.6
440.201	583.2
440.589	601
440.999	596.2
441.409	596.6
441.819	583.6
442.23	594.4
442.619	597.2
443.029	590.6
443.439	592.6
443.85	605
444.26	608.2
444.649	607.8
445.06	593.2
445.471	594
445.881	581.6
446.292	600.2
446.682	612.4
447.092	589.6
447.503	637
447.914	603
448.325	598.8
448.715	596.8
449.126	586.4
449.537	596
449.948	596
450.338	588.6
450.75	600.8
451.161	597.8
451.572	602.4
451.984	593.8
452.374	581.2
452.786	594.8
453.197	600.8
453.609	603.2
453.999	581.8
454.411	589.8
454.823	601.4
455.235	598
455.647	588.2
456.037	593.2
456.449	581.4
456.862	598.6
457.274	601
457.665	585.4
458.077	603
458.489	619.6
458.902	594.8
459.293	599.6
459.705	592.2
460.118	582.8
460.53	593.4
460.921	597
461.334	593
461.747	579.4
462.16	600.8
462.551	606.4
462.964	600.6
463.377	581.6
463.79	592
464.182	602.8
464.595	584.6
465.008	591.6
465.421	594.8
465.813	581.2
466.226	598.4
466.64	589.2
467.053	634.6
467.445	600.8
467.859	608.2
468.272	594.8
468.686	604.4
469.078	582.8
469.492	590.4
469.906	585.6
470.298	589.4
470.712	587.6
471.126	626.6
471.54	578
471.933	580.6
472.347	591
472.761	589
473.175	579.2
473.568	587
473.982	573.2
474.397	587
474.79	591.4
475.204	596.4
475.619	584.6
476.033	594.2
476.426	588.6
476.841	581.8
477.256	614.8
477.649	578.4
478.064	576.2
478.479	573.6
478.872	583.4
479.287	575.6
479.702	581.8
480.118	580
480.511	583.6
480.927	579.6
481.342	580.6
481.736	593.2
482.151	580.8
482.566	598.4
482.96	576.8
483.376	602.4
483.792	580.8
484.186	581.8
484.602	577.4
485.017	586.4
485.412	589.6
485.827	586.2
486.243	584
486.638	605.4
487.054	594.6
487.47	592.4
487.865	581.6
488.281	580.8
488.697	584.4
489.092	592.8
489.508	584.6
489.925	592.8
490.32	580
490.736	597.2
491.153	590.4
491.548	590
491.964	594.6
492.381	569.6
492.776	590
493.193	582.8
493.61	593.2
494.006	592.8
494.422	592.8
494.84	576.4
495.235	599
495.652	580.4
496.069	591
496.465	571.4
496.883	587.6
497.3	606.2
497.696	586.2
498.113	594.4
498.509	574.6
498.927	578.2
499.344	583.6
499.741	579.8
500.158	599.4
500.576	594.8
500.973	585.4
501.39	581.8
501.787	574.2
502.205	589.2
502.623	583.6
503.02	578.8
503.438	572.4
503.856	589.8
504.253	587.4
504.671	579.8
505.068	578.6
505.486	583.2
505.905	598
506.302	586
506.72	593.6
507.118	580.8
507.536	583
507.955	582.8
508.352	594.6
508.771	591.2
509.169	584
509.587	579.2
510.006	583.2
510.404	577.8
510.823	575.8
511.221	578.2
511.64	580
512.038	590.8
512.457	586.4
512.877	581.6
513.275	579
513.694	580.2
514.092	579.4
514.512	579.6
514.91	591.6
515.33	581.6
515.749	579.6
516.148	581.2
516.568	581.8
516.966	581.2
517.386	578.4
517.785	588.8
518.205	578
518.603	585.2
519.024	573.4
519.444	583.2
519.843	594.2
520.263	594.8
520.662	589.6
521.082	586.2
521.481	585.4
521.902	594
522.301	583
522.722	587.2
523.121	584.2
523.542	574
523.963	577.8
524.362	583.2
524.783	587
525.183	584.2
525.604	589.8
526.003	578.4
526.425	574.4
526.824	587.8
527.246	588.6
527.646	585.4
528.067	575.8
528.467	587.8
528.888	576
529.289	581
529.71	577.2
530.11	580.8
530.532	573
530.932	572.8
531.354	572.6
531.755	617.2
532.176	579.6
532.577	586
532.999	590.8
533.4	584.8
533.822	595.8
534.223	595
534.645	573.2
535.046	580
535.468	584.2
535.869	593.2
536.292	578.4
536.693	615.4
537.115	586.6
537.516	577.4
537.939	582.4
538.34	599
538.742	595
539.165	583
539.566	587.2
539.989	580
540.391	580.6
540.814	588.2
541.216	585.8
541.639	591.4
542.041	589
542.464	576.2
542.866	582.8
543.268	572.6
543.691	584.8
544.093	596
544.517	604.2
544.919	572.6
545.343	611.4
545.745	579.8
546.147	586
546.571	582.2
546.974	575.6
547.398	589.4
547.8	598.8
548.224	576.2
548.627	577
549.03	584.2
549.454	580.8
549.857	574.2
550.281	583.6
550.684	574.6
551.087	602.2
551.512	584.4
551.915	581
552.34	582.6
552.743	580.8
553.146	582
553.571	587.8
553.975	599
554.399	579
554.803	621.2
555.207	570.8
555.632	585.2
556.036	586.6
556.461	574.6
556.865	581.6
557.268	582
557.694	585.4
558.098	587
558.502	588.4
558.927	575.6
559.332	574.2
559.736	576.2
560.162	587.6
560.566	576.6
560.992	584
561.396	578.8
561.801	582
562.227	589.8
562.631	584.8
563.036	590.6
563.462	593
563.867	575.8
564.272	571.4
564.698	584.4
565.103	576.2
565.508	602.4
565.935	585.4
566.34	583.2
566.745	590
567.172	579.2
567.577	604.6
567.982	594.6
568.409	593
568.815	579
569.22	581.8
569.626	592.6
570.053	575.2
570.459	582.8
570.865	590.8
571.292	587.6
571.698	578.4
572.104	571.6
572.531	573.2
572.937	592.4
573.343	575.4
573.75	579.2
574.177	580.8
574.583	577.6
574.99	578.6
575.396	585.2
575.824	567.8
576.231	581.6
576.637	578.8
577.065	597.2
577.472	570.4
577.879	582
578.286	592.8
578.714	575.8
579.121	580.2
579.528	582.8
579.935	587.6
580.364	578.4
580.771	573.6
581.178	568.6
581.585	581.6
582.014	583.2
582.421	569
582.829	582.8
583.236	587.8
583.644	569.6
584.073	580
584.481	589.2
584.889	580.6
585.296	590.6
585.726	579
586.134	572.8
586.542	576
586.95	587.2
587.358	574.4
587.787	579.6
588.196	582.4
588.604	580.2
589.012	586.6
589.421	569.8
589.851	576.4
590.259	585.8
590.668	574
591.076	614.4
591.485	576
591.894	578.8
592.324	593
592.733	589.4
593.142	566.2
593.551	581
593.96	586.8
594.369	574.4
594.8	573.6
595.209	582.2
595.618	568.4
596.028	571.2
596.437	569.8
596.847	579.8
597.256	578
597.687	578.2
598.097	584.4
598.507	573
598.917	580.4
599.327	584
599.736	577.2
600.146	585.6
600.556	581.2
600.988	588.8
601.398	576.4
601.808	588.8
602.219	573.8
602.629	579
603.039	580
603.45	599.6
603.86	578.2
604.271	590.6
604.703	589
605.114	587
605.525	583.4
605.935	584.2
606.346	596
606.757	583.6
607.168	581.2
607.579	581.6
607.99	593
608.402	577.8
608.813	584.4
609.224	577.8
609.636	576
610.047	580
610.48	582
610.892	587.8
611.303	591.6
611.715	576.2
612.127	570.8
612.539	577.6
612.95	576
613.362	571.2
613.774	566.6
614.186	572.2
614.599	561.6
615.011	579.4
615.423	576.4
615.835	570.8
616.248	567.4
616.66	584.2
617.073	570.6
617.485	578.2
617.898	577
618.311	583.6
618.723	575.4
619.136	601
619.549	593.6
619.962	595.4
620.375	577
620.788	581.4
621.201	577.6
621.614	581.8
622.028	579.6
622.441	584.2
622.854	582.2
623.268	564
623.681	578.2
624.095	583.6
624.509	581
624.922	580.6
625.336	566.8
625.728	576
626.142	587.2
626.556	588.8
626.97	579.4
627.384	575.2
627.799	574.6
628.213	587
628.627	577.8
629.041	579.2
629.456	581.6
629.87	584.6
630.285	588.8
630.699	578.2
631.093	571.4
631.507	588.2
631.922	576.4
632.337	587.4
632.752	569.4
633.167	575.2
633.582	577
633.997	576
634.412	570.6
634.806	574.6
635.221	568.2
635.637	587.6
636.052	574
636.468	586
636.883	592.6
637.299	577.4
637.715	573.4
638.109	580.6
638.525	569.2
638.941	589.8
639.357	575
639.773	597.4
640.189	570.2
640.584	579.4
641	587.4
641.416	569.6
641.832	582
642.249	578.4
642.665	577.8
643.06	578.6
643.477	579.4
643.894	566.8
644.31	567
644.727	577.8
645.123	573.4
645.54	567.8
645.957	576.8
646.374	595.2
646.77	582.8
647.187	600
647.604	583.2
648.021	565.8
648.439	581.4
648.835	581.6
649.252	569.2
649.67	569.8
650.088	570.2
650.484	576.4
650.902	575.6
651.32	579
651.738	579
652.134	578.6
652.552	588.4
652.971	582.4
653.389	577.8
653.786	595.8
654.204	594.8
654.622	574.2
655.019	579.4
655.438	578.4
655.857	574.2
656.275	576.8
656.673	569
657.091	586.6
657.51	577.2
657.908	586.2
658.327	591.4
658.746	564
659.144	580.4
659.563	590.2
659.982	572.4
660.38	571.8
660.8	576.6
661.219	589.6
661.617	577.4
662.037	572.8
662.457	589.8
662.855	567.8
663.275	605.2
663.695	585.4
664.094	582
664.514	570
664.934	570
665.333	584.4
665.753	563.8
666.152	572.8
666.572	575.8
666.993	588
667.392	574.8
667.812	576.8
668.212	575.8
668.632	586.2
669.053	573
669.453	584.2
669.874	577
670.273	578.6
670.694	576.4
671.116	590
671.515	582.6
671.937	570.4
672.337	575.8
672.758	576.8
673.158	576.4
673.58	567.8
673.98	573.2
674.402	583.8
674.824	580.8
675.224	568.8
675.646	570.2
676.047	571.6
676.469	580.2
676.869	578.8
677.292	576
677.693	574.6
678.115	576.4
678.516	572.4
678.939	583.4
679.34	567.8
679.762	589.2
680.164	580
680.586	565.2
680.988	578.4
681.411	603.2
681.812	568.8
682.236	575.4
682.637	572.2
683.061	567.2
683.462	577.4
683.864	577.2
684.288	581.4
684.69	567.4
685.114	578.2
685.516	585.6
685.94	570.8
686.342	580.4
686.766	578.4
687.168	568.2
687.571	596.6
687.995	578.6
688.398	561.2
688.822	567.4
689.225	586
689.628	587.4
690.052	578.2
690.456	582
690.88	579
691.284	567.8
691.687	589.6
692.112	570
692.515	567.4
692.919	577.2
693.344	575
693.747	577.8
694.173	564.8
694.577	588.6
694.98	576.8
695.406	576.6
695.81	568.8
696.214	579.8
696.64	582.4
697.044	576.6
697.448	577.6
697.874	573.6
698.279	569.6
698.684	559.6
699.11	567.2
699.514	572.6
699.919	575.8
700.324	567.2
700.75	576.2
701.156	568
701.561	582
701.987	586.4
702.393	587.4
702.798	584.2
703.203	580
703.63	570.2
704.036	566.8
704.442	573.2
704.847	566.6
705.274	573.6
705.68	585.8
706.086	579.4
706.492	571.6
706.92	574.8
707.326	581.8
707.732	575
708.139	570
708.545	566
708.973	572.8
709.38	574.4
709.786	565.2
710.193	586.8
710.6	578.8
711.028	563
711.435	576.2
711.842	580
712.249	575
712.656	576.4
713.064	585.2
713.492	572.8
713.9	570.6
714.307	575.8
714.715	568.6
715.123	580.6
715.53	574
715.938	577
716.367	577
716.775	575
717.184	564
717.592	572.8
718	582.2
718.408	600
718.816	616.8
719.225	575
719.633	569.2
720.042	572.4
720.472	570.6
720.881	589
721.29	570.2
721.699	557.4
722.108	572.6
722.517	569.6
722.926	566.4
723.335	576
723.744	574.8
724.154	577.2
724.563	570
724.973	578.8
725.382	571.2
725.792	564.6
726.202	561
726.612	582.2
727.022	567.2
727.432	575.2
779.813	574
780.223	608.6
780.634	573
781.044	571
781.454	575.8
781.865	584.6
782.276	567.6
782.686	576.8
783.097	564.8
783.508	570.6
783.919	572.4
784.33	585.2
784.741	583.4
785.152	566
785.563	551.6
785.974	574.4
786.386	580.8
786.776	566
787.188	580.4
787.599	561.2
788.011	578.2
788.423	582.8
788.835	570.2
789.247	567
789.659	565.8
790.071	567
790.483	608.2
790.874	561.4
791.286	579.4
791.699	565.4
792.111	572.2
792.524	575.2
792.937	565
793.349	568.2
793.741	574
794.154	562.6
794.567	589.2
794.98	570.4
795.393	563.8
795.785	585
796.198	567.6
796.612	569
797.026	568.8
797.439	560.6
797.831	573.2
798.245	564.6
798.659	575.2
799.073	572
799.487	562.2
799.88	566
800.294	576.6
800.708	579.4
801.123	575.4
801.516	583.4
801.93	559.4
802.345	559.4
802.76	563.8
803.153	584.4
803.568	580.2
803.983	576.8
804.377	580.2
804.792	557
805.207	562.4
805.601	576.6
806.016	602.8
806.432	569.4
806.826	590.6
807.242	580.6
807.658	571.4
808.052	565.8
808.468	575.8
808.884	571
809.279	574.6
809.695	579.8
810.111	588
810.506	574.8
810.922	587
811.339	564.8
811.734	582.8
812.151	570
812.546	572.6
812.963	567.6
813.38	585.4
813.776	574.6
814.193	586.6
814.589	567
815.006	575.4
815.402	570.8
815.82	570.4
816.237	573.4
816.633	577.6
817.051	568.8
817.448	578.6
817.866	568.2
818.262	585
818.68	569.2
819.077	567.6
819.495	573.4
819.892	614
820.311	565
820.708	576.2
821.127	567.8
821.524	574.8
821.943	577.2
822.34	587.2
822.759	571.2
823.157	568
823.576	578.8
823.974	577.8
824.393	591
824.791	566
825.189	556.8
825.609	568.8
826.007	567.8
826.427	563.2
826.826	570.4
827.246	570.8
827.644	560.8
828.043	578.4
828.463	571.2
828.862	583.8
829.261	585.2
829.682	561
830.081	573.8
830.502	561
830.901	579.2
831.301	582.4
831.722	558.6
832.121	575.2
832.521	557.2
832.943	565
833.342	573.4
833.742	565.6
834.164	572.2
834.564	559.6
834.965	564.4
835.386	560.4
835.787	569
836.188	563.8
836.588	566
837.01	566.2
837.411	573.4
837.812	578.2
838.213	571
838.636	568.8
839.037	629.2
839.438	569.6
839.84	576.8
840.263	581.8
840.664	572.6
841.066	573.2
841.468	568.8
841.891	565.2
842.293	583
842.695	570.2
843.098	577.4
843.5	566.8
843.902	575.6
844.326	574.6
844.729	573.6
845.131	580.8
845.534	569.2
845.937	584.6
846.34	585
846.764	572.4
847.167	572.6
847.571	569.2
847.974	571.4
848.377	569.6
848.781	608.4
849.184	580.8
849.588	571
849.992	569
850.396	573
850.821	579.2
851.225	576
851.63	567.6
852.034	579.6
852.438	578.2
852.843	587.8
853.247	564
853.652	562.4
854.057	584.4
854.462	571.2
854.867	574.2
855.272	593.4
855.677	571.8
856.082	562.4
856.487	553.4
856.893	566.6
857.298	567.2
857.704	565
858.11	566.8
858.516	575.6
858.922	571.4
859.328	577.6
859.734	574.2
860.14	576.8
860.525	569.8
860.931	563.4
861.338	574.6
861.745	574.8
862.151	574.6
862.558	572.8
862.965	556.4
863.372	563.6
863.779	558.6
864.186	586.4
864.572	569
864.98	587.4
865.387	594.8
865.795	554.6
866.203	571.8
866.61	558.4
867.018	570.4
867.405	567.8
867.813	568.4
868.221	557
868.63	561
869.038	569.2
869.425	594.4
869.834	564.4
870.243	556.2
870.652	560.6
871.039	561.2
871.448	567.6
871.857	574.4
872.266	564.8
872.654	573
873.064	563.2
873.473	572.8
873.883	563.8
874.271	565.4
874.681	572.4
875.091	560.8
875.48	580.2
875.89	576
876.3	553.6
876.689	561
877.1	568.8
877.51	567.2
877.9	592.6
878.31	559.6
878.721	588.2
879.111	566.6
879.522	562.4
879.933	566
880.323	561.2
880.734	553.2
881.125	570.2
881.536	563.2
881.948	567.6
882.338	567.4
882.75	574.4
883.141	566.6
883.553	569.4
883.944	589
884.356	584
884.769	568.6
885.16	572.2
885.573	575.6
885.964	563
886.377	567.4
886.768	553
887.181	576.8
887.573	562.6
887.987	570
888.378	582.2
888.792	572.6
889.184	614
889.598	565
889.99	558.8
890.383	562.8
890.797	559.8
891.19	580
891.604	566.4
891.997	555.6
892.411	560.2
892.805	560.8
893.198	566.4
893.613	557
894.006	558.2
894.421	555.2
894.815	567
895.209	570.4
895.624	603.2
896.018	585
896.412	566.2
896.828	570.4
897.222	572.6
897.617	563
898.033	592.6
898.427	573.2
898.822	574
899.239	560.4
899.634	553.4
900.029	587.8
900.424	562.4
900.841	562.2
901.236	578
901.632	578.4
902.027	613.8
902.445	574.4
902.841	571.6
903.237	570.8
903.633	574.4
904.05	572.6
904.447	566.8
904.843	574.6
905.24	567.8
905.636	561.6
906.033	563
906.451	574.8
906.848	563.2
907.246	568.2
907.643	567.8
908.04	574.8
908.438	588.6
908.835	573.4
909.254	569.6
909.652	572.8
910.05	566.6
910.448	565.2
910.846	566.4
911.244	568.8
911.643	574
912.041	567
912.44	586.6
912.839	563.4
913.237	564.2
913.636	565.8
914.035	565.2
914.434	564.6
914.834	585
915.233	581
915.633	559.8
916.032	560
916.432	558.6
916.832	582.6
917.232	560.4
917.632	556.6
918.032	571.4
918.432	569.2
918.833	560.8
919.233	565.4
919.634	561.4
920.035	567.6
920.436	561
920.837	575.2
921.238	565.8
921.639	570.2
922.019	568.2
922.42	565.8
922.822	570.4
923.224	560.2
923.625	560.2
924.027	568.4
924.429	589
924.81	572.4
925.212	573.4
925.615	570.6
926.017	564.2
926.42	579.6
926.801	566.8
927.204	564.8
927.607	572.8
928.01	576.8
928.413	571.6
928.795	555
929.199	567.8
929.602	569.4
930.006	559.4
930.388	556.2
930.792	573.4
931.196	577.2
931.579	589.4
931.983	561
932.388	607.8
932.771	570.4
933.176	563.2
933.58	564.8
933.964	575
934.369	560.4
934.774	571.2
935.158	566.6
935.563	573.4
935.947	567.6
936.353	573
936.759	562.8
937.143	580
937.549	567.6
937.934	573.2
938.34	582.2
938.746	567
939.131	572.2
939.538	563.8
939.923	574.2
940.33	569.8
940.716	565.8
941.123	570.8
941.508	579.2
941.916	586.2
942.302	578.6
942.709	557
943.096	563
943.503	573.8
943.89	567.4
944.298	560.4
944.685	593.2
945.072	568
945.48	581.8
945.867	571.2
946.276	561.6
946.663	588.2
947.051	571.6
947.46	573.8
947.848	568.4
948.257	567.2
948.645	570.8
949.033	563.2
949.443	563.8
949.831	611.8
950.22	568.6
950.63	568.8
951.018	594
951.407	563.2
951.796	559.8
952.207	575.4
952.596	572.2
952.985	561
953.375	609
953.786	565.2
954.176	559
954.566	561.8
954.956	561.4
955.367	563.6
955.758	587.4
956.148	561.2
956.539	565
956.929	557.4
957.341	553.8
957.732	563.8
958.123	567.6
958.515	550
958.906	567.4
959.297	565.6
959.689	558.8
960.102	561.6
960.494	561.8
960.886	559.2
961.278	551.8
961.67	574.6
962.062	595.6
962.455	560.6
962.847	554.6
963.24	562.8
963.633	570.2
964.026	549.6
964.419	563.4
964.812	567.2
965.206	564.4
965.599	568.6
965.993	559.2
966.386	565.4
966.78	569.6
967.174	571.8
967.569	557.2
967.963	569
968.357	555.8
968.752	570.2
969.146	558
969.541	551.8
969.936	567.6
970.331	567.6
970.705	561.4
971.1	561.4
971.496	572.8
971.892	554.4
972.287	561.8
972.683	559.4
973.079	566.6
973.454	571.6
973.85	569.2
974.247	566.4
974.643	592
975.04	562.8
975.415	570.4
975.812	559.8
976.209	567
976.607	554.6
976.982	578
977.38	588.2
977.778	560.2
978.175	561.6
978.552	570.2
978.95	569
979.348	573.6
979.725	599.2
980.123	573.4
980.522	562.2
980.899	567.8
981.298	559
981.697	569.6
982.075	556.4
982.474	553
982.852	560.6
983.251	564.6
983.651	557.2
984.029	573.4
984.429	559.2
984.808	559.6
985.208	570.2
985.609	561
985.987	556.4
986.388	559.4
986.768	569.8
987.168	561.4
987.548	566.4
987.949	574
988.329	577.6
988.731	559
989.111	561.6
989.491	561
989.893	567.2
990.273	570.6
990.676	555.6
991.057	555.8
991.459	569
991.84	570.4
992.221	559.2
992.624	578.6
993.006	571.2
993.388	565
993.791	569.2
994.173	566.4
994.576	590.8
994.959	560.8
995.341	557.2
995.724	564.4
996.128	568.6
996.511	569.6
996.894	574
997.298	565.2
997.681	571.4
998.065	556.4
998.448	555.4
998.854	569.6
999.237	563.6
999.621	573
1000.01	571.6
1000.39	560.4
1000.8	559.6
1001.18	571.8
1001.56	560
1001.95	567
1002.33	567.2
1002.72	565.2
1003.13	560.8
1003.51	558.8
1003.9	558.6
1004.28	578.6
1004.67	563.8
1005.06	566.6
1005.44	591.4
1005.83	555.4
1006.21	561.8
1006.6	562.2
1006.99	570.6
1007.37	573.6
1007.76	565
1060.12	564.2
1060.51	559.6
1060.89	571.4
1061.28	571
1061.67	571.2
1062.06	572
1062.45	571.6
1062.83	560.6
1063.22	576
1063.61	604.2
1064	573.6
1064.39	562.2
1064.78	566
1065.14	574.6
1065.53	566.4
1065.92	563.2
1066.31	564.6
1066.7	564.4
1067.09	574.4
1067.46	574
1067.85	560.4
1068.24	565.4
1068.63	564
1069.02	563.8
1069.39	570.4
1069.78	565.2
1070.17	562.6
1070.57	550.4
1070.93	563.6
1071.33	560.2
1071.72	569.2
1072.11	557.8
1072.48	558.4
1072.87	568.4
1073.26	565
1073.64	560.8
1074.03	547.8
1074.4	564.6
1074.79	558.4
1075.19	571.4
1075.56	568
1075.95	568.4
1076.34	561
1076.72	561
1077.11	567.4
1077.48	576
1077.88	566
1078.25	557.8
1078.64	569
1079.02	571
1079.41	574.2
1079.78	557.6
1080.18	556.6
1080.55	617.2
1080.95	550.6
1081.32	569.8
1081.72	568
1082.09	567.6
1082.49	562.2
1082.86	563.4
1083.24	560.6
1083.63	554.4
1084.01	565
1084.38	573
1084.78	557.4
1085.16	560.2
1085.55	576.6
1085.93	574.6
1086.31	557
1086.7	590.4
1087.08	564
1087.46	563.4
1087.83	555.8
1088.23	568.8
1088.61	569.8
1088.99	568.2
1089.36	564.6
1089.76	557.8
1090.14	566.4
1090.52	561.2
1090.9	560.2
1091.27	572.4
1091.67	584.8
1092.05	564.4
1092.43	561.2
1092.81	572.2
1093.19	572.2
1093.57	561.4
1093.95	566
1094.35	571.6
1094.73	569.6
1095.11	565.8
1095.49	560
1095.87	569.4
1096.25	572.2
1096.63	569
1097.01	561.2
1097.39	566.4
1097.77	556.4
1098.15	565.6
1098.53	558.4
1098.91	559.6
1099.29	562.2
1099.68	578.8
1100.06	567.6
1100.44	557.2
1100.82	562.2
1101.18	558
1101.56	546.6
1101.95	561.2
1102.33	554.4
1102.71	562.2
1103.1	551.6
1103.48	553
1103.86	553.6
1104.22	566.6
1104.61	550.6
1104.99	551.6
1105.38	549.6
1105.76	550.4
1106.12	550.6
1106.51	587.8
1106.89	564.6
1107.26	564.8
1107.64	572.4
1108.03	562.4
1108.41	557.8
1108.78	565.8
1109.16	560.4
1109.55	560.8
1109.91	551
1110.3	548.2
1110.69	571.4
1111.05	552.8
1111.44	555.8
1111.8	563.6
1112.19	562
1112.58	557.8
1112.94	557.2
1113.33	558.6
1113.7	556
1114.09	561.4
1114.45	551.4
1114.84	559.8
1115.21	567
1115.6	556.4
1115.96	567.2
1116.35	565.8
1116.72	559.2
1117.11	569.4
1117.48	558
1117.85	564.6
1118.24	574.8
1118.6	559
1118.99	559.4
1119.36	567.2
1119.73	555.6
1120.12	566.6
1120.49	548.4
1120.86	558.2
1121.25	564.8
1121.62	550
1121.99	561.6
1122.38	568.8
1122.76	554
1123.13	554.4
1123.5	561.2
1123.89	581.8
1124.26	554.2
1124.63	570.4
1125	564.2
1125.4	559.8
1125.77	563.6
1126.14	549.2
1126.51	563.2
1126.88	563.2
1127.26	553.6
1127.63	546
1128.02	559.2
1128.4	555
1128.77	568.4
1129.14	562.8
1129.52	572.4
1129.89	567.8
1130.26	557.6
1130.64	560.2
1131.01	562
